Frequency(Hz)	Channel 1(V)	
0	0.436488	
4.88281	3.31061	
9.76563	0.40175	
14.6484	0.198893	
19.5313	0.134725	
24.4141	0.10277	
29.2969	0.0834214	
34.1797	0.0706151	
39.0625	0.0613053	
43.9453	0.0539258	
48.8281	0.0485973	
53.7109	0.0438311	
58.5938	0.0402454	
63.4766	0.0369232	
68.3594	0.0342991	
73.2422	0.0319015	
78.125	0.0298822	
83.0078	0.0281226	
87.8906	0.0265016	
92.7734	0.0251537	
97.6563	0.0238106	
102.539	0.0230317	
107.422	0.0216539	
112.305	0.0204318	
117.188	0.0198845	
122.07	0.0190899	
126.953	0.0183211	
131.836	0.0176333	
136.719	0.017011	
141.602	0.0164165	
146.484	0.0158729	
151.367	0.0153461	
156.25	0.0148737	
161.133	0.0144086	
166.016	0.0139938	
170.898	0.0135873	
175.781	0.0132092	
180.664	0.0128489	
185.547	0.0125082	
190.43	0.0121903	
195.313	0.0118772	
200.195	0.0115946	
205.078	0.0113124	
209.961	0.011094	
214.844	0.0107983	
219.727	0.0105227	
224.609	0.0103362	
229.492	0.0101123	
234.375	0.00990124	
239.258	0.00969924	
244.141	0.00950285	
249.023	0.00931772	
253.906	0.00913658	
258.789	0.00896641	
263.672	0.00879897	
268.555	0.00863371	
273.438	0.00848567	
278.32	0.00833275	
283.203	0.00819053	
288.086	0.00805196	
292.969	0.00791644	
297.852	0.0077837	
302.734	0.00765916	
307.617	0.00754154	
312.5	0.00742098	
317.383	0.00731438	
322.266	0.00719637	
327.148	0.00708153	
332.031	0.00698471	
336.914	0.00688504	
341.797	0.0067849	
346.68	0.00668914	
351.563	0.00659578	
356.445	0.00650268	
361.328	0.00641721	
366.211	0.00634439	
371.094	0.00624938	
375.977	0.00615955	
380.859	0.00608977	
385.742	0.00601191	
390.625	0.00593773	
395.508	0.00586256	
400.391	0.005792	
405.273	0.00572315	
410.156	0.00565435	
415.039	0.00558686	
419.922	0.00552349	
424.805	0.0054512	
429.688	0.00539742	
434.57	0.00534478	
439.453	0.0052756	
444.336	0.00521619	
449.219	0.00516147	
454.102	0.00510721	
458.984	0.00505227	
463.867	0.00499839	
468.75	0.004947	
473.633	0.00488575	
478.516	0.00484609	
483.398	0.00480593	
488.281	0.00474745	
493.164	0.00470152	
498.047	0.00465508	
502.93	0.00461087	
507.813	0.00456553	
512.695	0.00452101	
517.578	0.00447959	
522.461	0.00444095	
527.344	0.0043969	
532.227	0.00435241	
537.109	0.00431795	
541.992	0.0042816	
546.875	0.00423983	
551.758	0.00420107	
556.641	0.00416519	
561.523	0.00413014	
566.406	0.00409395	
571.289	0.00405642	
576.172	0.00402443	
581.055	0.00398992	
585.938	0.00395718	
590.82	0.0039285	
595.703	0.00389176	
600.586	0.00386235	
605.469	0.00382922	
610.352	0.00379842	
615.234	0.0037688	
620.117	0.00374084	
625	0.00371038	
629.883	0.00367729	
634.766	0.0036532	
639.648	0.00362566	
644.531	0.00359777	
649.414	0.00357058	
654.297	0.00354377	
659.18	0.00351766	
664.063	0.00349136	
668.945	0.00346555	
673.828	0.00344086	
678.711	0.00341739	
683.594	0.00339184	
688.477	0.00336749	
693.359	0.00334393	
698.242	0.00331918	
703.125	0.00329815	
708.008	0.00327632	
712.891	0.00325239	
717.773	0.00323024	
722.656	0.00320828	
727.539	0.00318614	
732.422	0.00316594	
737.305	0.00314798	
742.188	0.00312493	
747.07	0.00310162	
751.953	0.00308434	
756.836	0.00306495	
761.719	0.00304495	
766.602	0.00302345	
771.484	0.00300607	
776.367	0.00298755	
781.25	0.00296826	
786.133	0.00295219	
791.016	0.00293274	
795.898	0.00290532	
800.781	0.00289606	
805.664	0.00288366	
810.547	0.00286087	
815.43	0.00284358	
820.313	0.00282672	
825.195	0.00281045	
830.078	0.00279345	
834.961	0.00277775	
839.844	0.00276145	
844.727	0.00274533	
849.609	0.00273026	
854.492	0.00271461	
859.375	0.00269907	
864.258	0.00268287	
869.141	0.00266862	
874.023	0.00265527	
878.906	0.0026391	
883.789	0.00262443	
888.672	0.00261012	
893.555	0.00259687	
898.438	0.00258244	
903.32	0.00256437	
908.203	0.0025539	
913.086	0.00254436	
917.969	0.00252645	
922.852	0.00251402	
927.734	0.00250007	
932.617	0.00248733	
937.5	0.00247397	
942.383	0.00246093	
947.266	0.00244864	
952.148	0.00243599	
957.031	0.00242417	
961.914	0.00241263	
966.797	0.00239964	
971.68	0.00238689	
976.563	0.00237527	
981.445	0.00236373	
986.328	0.00235197	
991.211	0.00234064	
996.094	0.00232889	
1000.98	0.00231706	
1005.86	0.00230656	
1010.74	0.00229526	
1015.63	0.00228446	
1020.51	0.00227368	
1025.39	0.00226239	
1030.27	0.00225207	
1035.16	0.00224141	
1040.04	0.00223123	
1044.92	0.00222037	
1049.8	0.0022102	
1054.69	0.0021999	
1059.57	0.00218986	
1064.45	0.00218014	
1069.34	0.00217008	
1074.22	0.00216046	
1079.1	0.00215006	
1083.98	0.00214027	
1088.87	0.00213109	
1093.75	0.0021215	
1098.63	0.00211159	
1103.52	0.002103	
1108.4	0.00209388	
1113.28	0.00208432	
1118.16	0.00207255	
1123.05	0.00206645	
1127.93	0.00206051	
1132.81	0.00204791	
1137.7	0.0020396	
1142.58	0.00203076	
1147.46	0.00202211	
1152.34	0.00201371	
1157.23	0.00200464	
1162.11	0.00199674	
1166.99	0.00198889	
1171.88	0.00198056	
1176.76	0.0019706	
1181.64	0.00196447	
1186.52	0.00195647	
1191.41	0.001948	
1196.29	0.00194114	
1201.17	0.00193185	
1206.05	0.00192488	
1210.94	0.00191705	
1215.82	0.00190723	
1220.7	0.00190125	
1225.59	0.00189632	
1230.47	0.00188639	
1235.35	0.00187843	
1240.23	0.00187159	
1245.12	0.00186455	
1250	0.0018569	
1254.88	0.00185092	
1259.77	0.00184272	
1264.65	0.00183391	
1269.53	0.00182849	
1274.41	0.0018234	
1279.3	0.0018146	
1284.18	0.00180692	
1289.06	0.00180091	
1293.95	0.00179435	
1298.83	0.00178742	
1303.71	0.00178083	
1308.59	0.00177388	
1313.48	0.00176768	
1318.36	0.00176119	
1323.24	0.00175248	
1328.13	0.00174798	
1333.01	0.00174444	
1337.89	0.00173525	
1342.77	0.00172653	
1347.66	0.00172287	
1352.54	0.00171652	
1357.42	0.00171032	
1362.3	0.0017032	
1367.19	0.00169818	
1372.07	0.00169156	
1376.95	0.00168633	
1381.84	0.00168323	
1386.72	0.00167457	
1391.6	0.00166683	
1396.48	0.00166314	
1401.37	0.00165715	
1406.25	0.00165156	
1411.13	0.00164559	
1416.02	0.0016401	
1420.9	0.00163383	
1425.78	0.00162863	
1430.66	0.00162325	
1435.55	0.0016178	
1440.43	0.0016116	
1445.31	0.0016068	
1450.2	0.0016018	
1455.08	0.00159614	
1459.96	0.00159109	
1464.84	0.00158544	
1469.73	0.00158076	
1474.61	0.00157489	
1479.49	0.00156902	
1484.38	0.00156497	
1489.26	0.00155962	
1494.14	0.00155445	
1499.02	0.00154983	
1503.91	0.00154425	
1508.79	0.00153926	
1513.67	0.00153445	
1518.55	0.00152963	
1523.44	0.00152456	
1528.32	0.00152068	
1533.2	0.00151489	
1538.09	0.00151091	
1542.97	0.00150562	
1547.85	0.00150157	
1552.73	0.00149622	
1557.62	0.00148998	
1562.5	0.00148694	
1567.38	0.00148279	
1572.27	0.00147776	
1577.15	0.00147411	
1582.03	0.0014686	
1586.91	0.00146373	
1591.8	0.00145955	
1596.68	0.00145699	
1601.56	0.00145052	
1606.45	0.0014462	
1611.33	0.00144212	
1616.21	0.00143819	
1621.09	0.00143341	
1625.98	0.00142989	
1630.86	0.00142494	
1635.74	0.00142079	
1640.63	0.00141633	
1645.51	0.00141212	
1650.39	0.0014082	
1655.27	0.00140399	
1660.16	0.0013998	
1665.04	0.0013958	
1669.92	0.00139174	
1674.8	0.00138706	
1679.69	0.00138371	
1684.57	0.00137969	
1689.45	0.00137553	
1694.34	0.00137164	
1699.22	0.00136762	
1704.1	0.00136574	
1708.98	0.00136	
1713.87	0.00135391	
1718.75	0.00135251	
1723.63	0.00134851	
1728.52	0.00134489	
1733.4	0.00134145	
1738.28	0.0013374	
1743.16	0.00133431	
1748.05	0.00132994	
1752.93	0.00132611	
1757.81	0.00132248	
1762.7	0.00132017	
1767.58	0.00131552	
1772.46	0.00131094	
1777.34	0.00130826	
1782.23	0.00130494	
1787.11	0.00130097	
1791.99	0.00129924	
1796.88	0.00129397	
1801.76	0.00128996	
1806.64	0.00128694	
1811.52	0.00128359	
1816.41	0.00128005	
1821.29	0.00127601	
1826.17	0.00127348	
1831.05	0.0012699	
1835.94	0.00126665	
1840.82	0.00126441	
1845.7	0.00125998	
1850.59	0.0012575	
1855.47	0.0012533	
1860.35	0.00124907	
1865.23	0.00124671	
1870.12	0.0012437	
1875	0.00124037	
1879.88	0.00123759	
1884.77	0.00123403	
1889.65	0.00123061	
1894.53	0.00122751	
1899.41	0.00122484	
1904.3	0.00122121	
1909.18	0.0012177	
1914.06	0.0012151	
1918.95	0.00121302	
1923.83	0.00120941	
1928.71	0.00120464	
1933.59	0.00120328	
1938.48	0.00120099	
1943.36	0.0011973	
1948.24	0.00119377	
1953.13	0.00119129	
1958.01	0.00118835	
1962.89	0.00118535	
1967.77	0.00118224	
1972.66	0.00117948	
1977.54	0.00117619	
1982.42	0.00117364	
1987.3	0.00117117	
1992.19	0.00116811	
1997.07	0.00116573	
2001.95	0.00116235	
2006.84	0.00115837	
2011.72	0.00115679	
2016.6	0.00115448	
2021.48	0.0011511	
2026.37	0.00114926	
2031.25	0.00114573	
2036.13	0.00114106	
2041.02	0.00114038	
2045.9	0.00113699	
2050.78	0.00113491	
2055.66	0.00113244	
2060.55	0.00112955	
2065.43	0.0011269	
2070.31	0.00112433	
2075.2	0.00112274	
2080.08	0.001119	
2084.96	0.00111628	
2089.84	0.0011139	
2094.73	0.00111157	
2099.61	0.0011089	
2104.49	0.00110507	
2109.38	0.00110368	
2114.26	0.00110137	
2119.14	0.0010983	
2124.02	0.00109506	
2128.91	0.00109377	
2133.79	0.00109015	
2138.67	0.00108873	
2143.55	0.0010861	
2148.44	0.00108374	
2153.32	0.00108058	
2158.2	0.00107877	
2163.09	0.00107653	
2167.97	0.00107402	
2172.85	0.00107216	
2177.73	0.00106936	
2182.62	0.00106729	
2187.5	0.00106459	
2192.38	0.00106149	
2197.27	0.00106006	
2202.15	0.00105719	
2207.03	0.00105526	
2211.91	0.00105235	
2216.8	0.00105083	
2221.68	0.00104901	
2226.56	0.00104594	
2231.45	0.00104372	
2236.33	0.00104149	
2241.21	0.00103926	
2246.09	0.00103699	
2250.98	0.00103451	
2255.86	0.0010325	
2260.74	0.00103051	
2265.63	0.00102817	
2270.51	0.00102597	
2275.39	0.00102413	
2280.27	0.00102115	
2285.16	0.00101955	
2290.04	0.00101735	
2294.92	0.00101519	
2299.8	0.00101291	
2304.69	0.00101104	
2309.57	0.00100892	
2314.45	0.00100676	
2319.34	0.0010044	
2324.22	0.00100265	
2329.1	0.000999872	
2333.98	0.000998422	
2338.87	0.000996472	
2343.75	0.000994309	
2348.63	0.00099312	
2353.52	0.000990157	
2358.4	0.000987532	
2363.28	0.000986004	
2368.16	0.000984087	
2373.05	0.000982121	
2377.93	0.000979464	
2382.81	0.000978063	
2387.7	0.000977329	
2392.58	0.0009741	
2397.46	0.000971572	
2402.34	0.000970399	
2407.23	0.000968409	
2412.11	0.000966806	
2416.99	0.00096383	
2421.88	0.000962876	
2426.76	0.000960021	
2431.64	0.00095896	
2436.52	0.000956818	
2441.41	0.000955033	
2446.29	0.000953452	
2451.17	0.000951512	
2456.05	0.000949744	
2460.94	0.000947603	
2465.82	0.00094533	
2470.7	0.000943779	
2475.59	0.000941758	
2480.47	0.000940064	
2485.35	0.00093967	
2490.23	0.000936457	
2495.12	0.000934346	
2500	0.000932916	
2504.88	0.000930275	
2509.77	0.000929462	
2514.65	0.000928216	
2519.53	0.000925694	
2524.41	0.000923738	
2529.3	0.000922413	
2534.18	0.000921736	
2539.06	0.000918717	
2543.95	0.000917187	
2548.83	0.00091522	
2553.71	0.000914081	
2558.59	0.000911842	
2563.48	0.000909504	
2568.36	0.000908401	
2573.24	0.000906998	
2578.13	0.000904944	
2583.01	0.000903556	
2587.89	0.00090161	
2592.77	0.000900083	
2597.66	0.000898248	
2602.54	0.000896465	
2607.42	0.000894902	
2612.3	0.000893875	
2617.19	0.000891922	
2622.07	0.000889143	
2626.95	0.000888491	
2631.84	0.000886585	
2636.72	0.000885404	
2641.6	0.000884317	
2646.48	0.000882064	
2651.37	0.00088027	
2656.25	0.000878792	
2661.13	0.000876831	
2666.02	0.000875687	
2670.9	0.000873525	
2675.78	0.000872516	
2680.66	0.000870846	
2685.55	0.000869146	
2690.43	0.000867161	
2695.31	0.000866127	
2700.2	0.000865265	
2705.08	0.000863087	
2709.96	0.000861942	
2714.84	0.000859894	
2719.73	0.000859455	
2724.61	0.00085733	
2729.49	0.000853848	
2734.38	0.000854254	
2739.26	0.000852687	
2744.14	0.000851314	
2749.02	0.000849936	
2753.91	0.000848199	
2758.79	0.000846221	
2763.67	0.000845224	
2768.55	0.000843661	
2773.44	0.000842272	
2778.32	0.000840185	
2783.2	0.00083945	
2788.09	0.000837877	
2792.97	0.000836418	
2797.85	0.000834411	
2802.73	0.000833476	
2807.62	0.000831807	
2812.5	0.000830666	
2817.38	0.000829526	
2822.27	0.000827808	
2827.15	0.000827199	
2832.03	0.000825271	
2836.91	0.000822102	
2841.8	0.000822407	
2846.68	0.000821779	
2851.56	0.000819514	
2856.45	0.000818292	
2861.33	0.00081677	
2866.21	0.000815021	
2871.09	0.000814203	
2875.98	0.000813149	
2880.86	0.000811313	
2885.74	0.00080865	
2890.63	0.000808493	
2895.51	0.000808036	
2900.39	0.00080594	
2905.27	0.000804739	
2910.16	0.000803049	
2915.04	0.000802117	
2919.92	0.000800395	
2924.8	0.00079942	
2929.69	0.000797889	
2934.57	0.000797279	
2939.45	0.000795497	
2944.34	0.000793825	
2949.22	0.000792929	
2954.1	0.000791948	
2958.98	0.000790402	
2963.87	0.000789352	
2968.75	0.000787785	
2973.63	0.000786258	
2978.52	0.000785214	
2983.4	0.000784265	
2988.28	0.000782797	
2993.16	0.000781466	
2998.05	0.000780284	
3002.93	0.000778913	
3007.81	0.000777749	
3012.7	0.000776001	
3017.58	0.000775185	
3022.46	0.000774971	
3027.34	0.000772698	
3032.23	0.000771061	
3037.11	0.000770476	
3041.99	0.000770182	
3046.88	0.000767865	
3051.76	0.000765959	
3056.64	0.000765604	
3061.52	0.000764437	
3066.41	0.000763021	
3071.29	0.00076224	
3076.17	0.000760865	
3081.05	0.000759943	
3085.94	0.00075838	
3090.82	0.000756898	
3095.7	0.000756069	
3100.59	0.000755939	
3105.47	0.000753716	
3110.35	0.000752621	
3115.23	0.000751508	
3120.12	0.000749209	
3125	0.000749308	
3129.88	0.000748065	
3134.77	0.00074686	
3139.65	0.000745634	
3144.53	0.000744712	
3149.41	0.000743704	
3154.3	0.000742231	
3159.18	0.000741166	
3164.06	0.00074004	
3168.95	0.000739183	
3173.83	0.000737717	
3178.71	0.000737021	
3183.59	0.00073546	
3188.48	0.000734723	
3193.36	0.000733499	
3198.24	0.000732608	
3203.13	0.000731299	
3208.01	0.000730463	
3212.89	0.000729081	
3217.77	0.000727597	
3222.66	0.000727015	
3227.54	0.000726485	
3232.42	0.000724739	
3237.3	0.000723848	
3242.19	0.000722791	
3247.07	0.000721424	
3251.95	0.000720423	
3256.84	0.000719459	
3261.72	0.000718424	
3266.6	0.000718322	
3271.48	0.000716211	
3276.37	0.000715383	
3281.25	0.000714244	
3286.13	0.000713026	
3291.02	0.000712134	
3295.9	0.00071094	
3300.78	0.000710134	
3305.66	0.000708974	
3310.55	0.000708038	
3315.43	0.000708409	
3320.31	0.000706051	
3325.2	0.000704814	
3330.08	0.000703913	
3334.96	0.000702287	
3339.84	0.000702033	
3344.73	0.000700995	
3349.61	0.000700129	
3354.49	0.000698568	
3359.38	0.000697972	
3364.26	0.000697065	
3369.14	0.000695927	
3374.02	0.000695919	
3378.91	0.000693931	
3383.79	0.000692509	
3388.67	0.000692009	
3393.55	0.0006916	
3398.44	0.000690137	
3403.32	0.000688456	
3408.2	0.000688206	
3413.09	0.000686951	
3417.97	0.00068623	
3422.85	0.000685917	
3427.73	0.00068437	
3432.62	0.000683999	
3437.5	0.000682496	
3442.38	0.00068172	
3447.27	0.000680644	
3452.15	0.000679792	
3457.03	0.00067881	
3461.91	0.000677385	
3466.8	0.000676854	
3471.68	0.000675934	
3476.56	0.00067497	
3481.45	0.000674698	
3486.33	0.000673251	
3491.21	0.000671806	
3496.09	0.000671313	
3500.98	0.000670677	
3505.86	0.000669479	
3510.74	0.000668822	
3515.63	0.00066777	
3520.51	0.00066641	
3525.39	0.000665922	
3530.27	0.000665435	
3535.16	0.000663875	
3540.04	0.000662971	
3544.92	0.000662251	
3549.8	0.000661591	
3554.69	0.000660415	
3559.57	0.000659765	
3564.45	0.000658802	
3569.34	0.000657205	
3574.22	0.000656994	
3579.1	0.000655848	
3583.98	0.000655217	
3588.87	0.00065497	
3593.75	0.000653609	
3598.63	0.000651397	
3603.52	0.000651829	
3608.4	0.000651229	
3613.28	0.000649938	
3618.16	0.00064933	
3623.05	0.000648452	
3627.93	0.000646618	
3632.81	0.000646694	
3637.7	0.000645998	
3642.58	0.000644959	
3647.46	0.000644907	
3652.34	0.000643179	
3657.23	0.000642968	
3662.11	0.00064159	
3666.99	0.00064094	
3671.88	0.00063993	
3676.76	0.00063846	
3681.64	0.000638394	
3686.52	0.000638163	
3691.41	0.000636697	
3696.29	0.000635442	
3701.17	0.000635092	
3706.05	0.000633931	
3710.94	0.000633546	
3715.82	0.000632352	
3720.7	0.000631848	
3725.59	0.000629949	
3730.47	0.000630287	
3735.35	0.000629649	
3740.23	0.000628644	
3745.12	0.000627418	
3750	0.000626922	
3754.88	0.000626683	
3759.77	0.000625227	
3764.65	0.00062475	
3769.53	0.000623928	
3774.41	0.000622734	
3779.3	0.000622213	
3784.18	0.000621785	
3789.06	0.000620649	
3793.95	0.000620519	
3798.83	0.000619133	
3803.71	0.00061822	
3808.59	0.000617601	
3813.48	0.000616875	
3818.36	0.000616247	
3823.24	0.000615596	
3828.13	0.0006146	
3833.01	0.000613078	
3837.89	0.000613157	
3842.77	0.000612542	
3847.66	0.000611585	
3852.54	0.000610317	
3857.42	0.000610173	
3862.3	0.000609861	
3867.19	0.000608467	
3872.07	0.000607849	
3876.95	0.000607033	
3881.84	0.000607091	
3886.72	0.000605528	
3891.6	0.000605265	
3896.48	0.000603943	
3901.37	0.000603509	
3906.25	0.000602812	
3911.13	0.000602027	
3916.02	0.000601179	
3920.9	0.00059985	
3925.78	0.000599639	
3930.66	0.000599451	
3935.55	0.00059834	
3940.43	0.000596736	
3945.31	0.000596816	
3950.2	0.00059637	
3955.08	0.000595317	
3959.96	0.00059398	
3964.84	0.000594073	
3969.73	0.000593409	
3974.61	0.000592655	
3979.49	0.00059169	
3984.38	0.000591212	
3989.26	0.000590604	
3994.14	0.00058995	
3999.02	0.000589538	
4003.91	0.000588596	
4008.79	0.000587159	
4013.67	0.000587145	
4018.55	0.000586065	
4023.44	0.000585727	
4028.32	0.000585209	
4033.2	0.000584286	
4038.09	0.000584102	
4042.97	0.000583071	
4047.85	0.000581924	
4052.73	0.000581453	
4057.62	0.000582339	
4062.5	0.000580206	
4067.38	0.000579033	
4072.27	0.000578935	
4077.15	0.000578528	
4082.03	0.000577583	
4086.91	0.00057746	
4091.8	0.000576211	
4096.68	0.000576044	
4101.56	0.000574956	
4106.45	0.000574922	
4111.33	0.000573502	
4116.21	0.000573396	
4121.09	0.000572125	
4125.98	0.000571488	
4130.86	0.00057112	
4135.74	0.000570637	
4140.63	0.000569681	
4145.51	0.00056849	
4150.39	0.000568447	
4155.27	0.000567981	
4160.16	0.000566913	
4165.04	0.000566056	
4169.92	0.000565766	
4174.8	0.00056488	
4179.69	0.000564539	
4184.57	0.000564013	
4189.45	0.000563388	
4194.34	0.0005629	
4199.22	0.000562061	
4204.1	0.000561111	
4208.98	0.000560736	
4213.87	0.000560544	
4218.75	0.000559747	
4223.63	0.000558575	
4228.52	0.000558128	
4233.4	0.000557854	
4238.28	0.000557129	
4243.16	0.000555934	
4248.05	0.000555662	
4252.93	0.000554563	
4257.81	0.000554621	
4262.7	0.000553718	
4267.58	0.00055339	
4272.46	0.000552512	
4277.34	0.000552161	
4282.23	0.000551578	
4287.11	0.000550974	
4291.99	0.000550097	
4296.88	0.000549824	
4301.76	0.000548583	
4306.64	0.000548608	
4311.52	0.000547662	
4316.41	0.000547309	
4321.29	0.000546975	
4326.17	0.000546106	
4331.05	0.000545233	
4335.94	0.000544885	
4340.82	0.000544931	
4345.7	0.000543882	
4350.59	0.00054336	
4355.47	0.000542523	
4360.35	0.000541584	
4365.23	0.000541473	
4370.12	0.000540608	
4375	0.000540387	
4379.88	0.000540154	
4384.77	0.00053913	
4389.65	0.000538897	
4394.53	0.000537976	
4399.41	0.000537302	
4404.3	0.000536939	
4409.18	0.000535828	
4414.06	0.000535817	
4418.95	0.000535122	
4423.83	0.000534529	
4428.71	0.000533699	
4433.59	0.000533485	
4438.48	0.000532582	
4443.36	0.000532212	
4448.24	0.000531968	
4453.13	0.000531095	
4458.01	0.000531395	
4462.89	0.000530138	
4467.77	0.000528885	
4472.66	0.000528846	
4477.54	0.000527672	
4482.42	0.000527842	
4487.3	0.00052784	
4492.19	0.000526755	
4497.07	0.000526454	
4501.95	0.000525644	
4506.84	0.00052443	
4511.72	0.000524582	
4516.6	0.000523575	
4521.48	0.000523556	
4526.37	0.000523718	
4531.25	0.000522366	
4536.13	0.00052217	
4541.02	0.000521163	
4545.9	0.000520523	
4550.78	0.000520319	
4555.66	0.00051948	
4560.55	0.000518928	
4565.43	0.000518354	
4570.31	0.000518168	
4575.2	0.000517762	
4580.08	0.000517071	
4584.96	0.000516405	
4589.84	0.000516055	
4594.73	0.000516181	
4599.61	0.000514904	
4604.49	0.000514148	
4609.38	0.000514004	
4614.26	0.000513321	
4619.14	0.000512886	
4624.02	0.000512852	
4628.91	0.000511726	
4633.79	0.000511772	
4638.67	0.000510786	
4643.55	0.000510486	
4648.44	0.000509613	
4653.32	0.000509182	
4658.2	0.000508758	
4663.09	0.000508085	
4667.97	0.000507742	
4672.85	0.000507133	
4677.73	0.000506638	
4682.62	0.000506206	
4687.5	0.000505641	
4692.38	0.000505637	
4697.27	0.000504754	
4702.15	0.000504281	
4707.03	0.000503803	
4711.91	0.000503047	
4716.8	0.000502756	
4721.68	0.000502246	
4726.56	0.000501711	
4731.45	0.000501362	
4736.33	0.00050079	
4741.21	0.000500116	
4746.09	0.000499808	
4750.98	0.000499316	
4755.86	0.000498716	
4760.74	0.000498602	
4765.63	0.000497815	
4770.51	0.000496745	
4775.39	0.000496781	
4780.27	0.000496394	
4785.16	0.000495949	
4790.04	0.000495758	
4794.92	0.000494949	
4799.8	0.000494816	
4804.69	0.000493904	
4809.57	0.00049326	
4814.45	0.000493038	
4819.34	0.000492827	
4824.22	0.000492134	
4829.1	0.000492012	
4833.98	0.00049122	
4838.87	0.000490232	
4843.75	0.000490116	
4848.63	0.00049029	
4853.52	0.000489201	
4858.4	0.000488923	
4863.28	0.000488252	
4868.16	0.00048846	
4873.05	0.000487264	
4877.93	0.000485683	
4882.81	0.000486359	
4887.7	0.000486214	
4892.58	0.000485408	
4897.46	0.000484484	
4902.34	0.000484419	
4907.23	0.000484501	
4912.11	0.000483858	
4916.99	0.000482532	
4921.88	0.000482752	
4926.76	0.000482249	
4931.64	0.000481795	
4936.52	0.000481802	
4941.41	0.000480838	
4946.29	0.000480817	
4951.17	0.000480087	
4956.05	0.000479615	
4960.94	0.000479212	
4965.82	0.000477958	
4970.7	0.000478336	
4975.59	0.000477896	
4980.47	0.000477376	
4985.35	0.000476619	
4990.23	0.000476497	
4995.12	0.000476862	
5000	0.000475522	
5004.88	0.000474898	
5009.77	0.000474752	
5014.65	0.000474698	
5019.53	0.000473967	
5024.41	0.000472051	
5029.3	0.000473122	
5034.18	0.000472779	
5039.06	0.000472095	
5043.95	0.000472128	
5048.83	0.000471281	
5053.71	0.000471011	
5058.59	0.000470437	
5063.48	0.000469908	
5068.36	0.000469455	
5073.24	0.000469233	
5078.13	0.000468594	
5083.01	0.000467774	
5087.89	0.000467833	
5092.77	0.0004672	
5097.66	0.000466997	
5102.54	0.000466769	
5107.42	0.000466237	
5112.3	0.000465023	
5117.19	0.000465312	
5122.07	0.000464806	
5126.95	0.000464565	
5131.84	0.000464208	
5136.72	0.00046372	
5141.6	0.000463524	
5146.48	0.000462688	
5151.37	0.000462057	
5156.25	0.000461895	
5161.13	0.000461512	
5166.02	0.000461172	
5170.9	0.000461215	
5175.78	0.000460338	
5180.66	0.00045974	
5185.55	0.00045955	
5190.43	0.000459143	
5195.31	0.000458724	
5200.2	0.000458232	
5205.08	0.000457915	
5209.96	0.000457052	
5214.84	0.000457031	
5219.73	0.000456515	
5224.61	0.000456247	
5229.49	0.000455549	
5234.38	0.000455491	
5239.26	0.000454624	
5244.14	0.000454727	
5249.02	0.000454458	
5253.91	0.00045382	
5258.79	0.000452994	
5263.67	0.000453069	
5268.55	0.000453151	
5273.44	0.000452363	
5278.32	0.000452026	
5283.2	0.000451641	
5288.09	0.000451655	
5292.97	0.000450759	
5297.85	0.000450335	
5302.73	0.000449901	
5307.62	0.000448885	
5312.5	0.000449055	
5317.38	0.000449059	
5322.27	0.000448391	
5327.15	0.000448408	
5332.03	0.000447626	
5336.91	0.000447263	
5341.8	0.000446793	
5346.68	0.000446168	
5351.56	0.000446068	
5356.45	0.000445616	
5361.33	0.000445259	
5366.21	0.0004446	
5371.09	0.000444639	
5375.98	0.000443956	
5380.86	0.000443822	
5385.74	0.000443851	
5390.63	0.00044307	
5395.51	0.000442468	
5400.39	0.000442361	
5405.27	0.000441694	
5410.16	0.000441534	
5415.04	0.000440956	
5419.92	0.000440771	
5424.8	0.000440284	
5429.69	0.000439932	
5434.57	0.000439606	
5439.45	0.000439226	
5444.34	0.000439242	
5449.22	0.000438551	
5454.1	0.000438625	
5458.98	0.000437901	
5463.87	0.000436839	
5468.75	0.000437069	
5473.63	0.000436384	
5478.52	0.000436392	
5483.4	0.000435688	
5488.28	0.000435676	
5493.16	0.00043559	
5498.05	0.000434953	
5502.93	0.000434756	
5507.81	0.000434227	
5512.7	0.000434568	
5517.58	0.000433463	
5522.46	0.000432697	
5527.34	0.000432672	
5532.23	0.000432932	
5537.11	0.000431921	
5541.99	0.000431406	
5546.88	0.000431242	
5551.76	0.000431546	
5556.64	0.000430552	
5561.52	0.00043004	
5566.41	0.000429949	
5571.29	0.000429553	
5576.17	0.000429278	
5581.05	0.000428127	
5585.94	0.000428469	
5590.82	0.000427714	
5595.7	0.000427859	
5600.59	0.000427797	
5605.47	0.000427121	
5610.35	0.000426376	
5615.23	0.000426301	
5620.12	0.000425693	
5625	0.000425689	
5629.88	0.000424862	
5634.77	0.000425001	
5639.65	0.000424293	
5644.53	0.0004243	
5649.41	0.00042378	
5654.3	0.00042363	
5659.18	0.000423489	
5664.06	0.000422978	
5668.95	0.000422695	
5673.83	0.000422251	
5678.71	0.000421917	
5683.59	0.000421644	
5688.48	0.000421657	
5693.36	0.000420917	
5698.24	0.000420634	
5703.13	0.000420298	
5708.01	0.00041992	
5712.89	0.000419677	
5717.77	0.000418481	
5722.66	0.000418832	
5727.54	0.000418439	
5732.42	0.000418225	
5737.3	0.000418547	
5742.19	0.000417558	
5747.07	0.000417342	
5751.95	0.000416904	
5756.84	0.00041661	
5761.72	0.000416267	
5766.6	0.000416523	
5771.48	0.000415548	
5776.37	0.000414614	
5781.25	0.000415031	
5786.13	0.000414496	
5791.02	0.000414369	
5795.9	0.000413771	
5800.78	0.00041378	
5805.66	0.000413617	
5810.55	0.000412996	
5815.43	0.000412439	
5820.31	0.000412396	
5825.2	0.000412142	
5830.08	0.000411767	
5834.96	0.000411499	
5839.84	0.00041108	
5844.73	0.0004106	
5849.61	0.000410417	
5854.49	0.000410404	
5859.38	0.000409833	
5864.26	0.00040926	
5869.14	0.000409129	
5874.02	0.000409237	
5878.91	0.000408361	
5883.79	0.000407842	
5888.67	0.000407981	
5893.55	0.000407864	
5898.44	0.000407268	
5903.32	0.000406426	
5908.2	0.000406703	
5913.09	0.000406833	
5917.97	0.000406078	
5922.85	0.000405764	
5927.73	0.000405423	
5932.62	0.000405097	
5937.5	0.000404794	
5942.38	0.000404089	
5947.27	0.000404183	
5952.15	0.000403946	
5957.03	0.000403611	
5961.91	0.000403742	
5966.8	0.000402972	
5971.68	0.000402371	
5976.56	0.000402328	
5981.45	0.000401685	
5986.33	0.000401818	
5991.21	0.000401681	
5996.09	0.000401202	
6000.98	0.000401322	
6005.86	0.000400619	
6010.74	0.000399942	
6015.63	0.000399975	
6020.51	0.000399857	
6025.39	0.000399255	
6030.27	0.000398768	
6035.16	0.000398769	
6040.04	0.000398695	
6044.92	0.00039811	
6049.8	0.000398107	
6054.69	0.00039754	
6059.57	0.000396924	
6064.45	0.00039701	
6069.34	0.000396739	
6074.22	0.000396409	
6079.1	0.000396439	
6083.98	0.000395725	
6088.87	0.000395009	
6093.75	0.000395172	
6098.63	0.000394639	
6103.52	0.000394641	
6108.4	0.000394828	
6113.28	0.000394049	
6118.16	0.000393506	
6123.05	0.000393482	
6127.93	0.000393229	
6132.81	0.000392805	
6137.7	0.000392387	
6142.58	0.000392226	
6147.46	0.000392669	
6152.34	0.000391701	
6157.23	0.000391456	
6162.11	0.000391169	
6166.99	0.000390942	
6171.88	0.000390801	
6176.76	0.000390061	
6181.64	0.000390085	
6186.52	0.000389779	
6191.41	0.000389489	
6196.29	0.000389156	
6201.17	0.000388985	
6206.05	0.000388667	
6210.94	0.000388423	
6215.82	0.000387393	
6220.7	0.000387773	
6225.59	0.000388172	
6230.47	0.000387112	
6235.35	0.000386716	
6240.23	0.000386644	
6245.12	0.000386373	
6250	0.000386054	
6254.88	0.000385678	
6259.77	0.0003856	
6264.65	0.00038546	
6269.53	0.000385015	
6274.41	0.000384507	
6279.3	0.000384494	
6284.18	0.000384062	
6289.06	0.000383947	
6293.95	0.000383953	
6298.83	0.000383356	
6303.71	0.000383377	
6308.59	0.000382775	
6313.48	0.000381985	
6318.36	0.000382368	
6323.24	0.000381531	
6328.13	0.000381788	
6333.01	0.000381416	
6337.89	0.000381208	
6342.77	0.000381175	
6347.66	0.0003807	
6352.54	0.000380113	
6357.42	0.000380097	
6362.3	0.000380051	
6367.19	0.000379687	
6372.07	0.000379645	
6376.95	0.000379068	
6381.84	0.00037904	
6386.72	0.000378456	
6391.6	0.00037784	
6396.48	0.000377971	
6401.37	0.00037724	
6406.25	0.000377515	
6411.13	0.000376857	
6416.02	0.000376904	
6420.9	0.000376482	
6425.78	0.000376486	
6430.66	0.000375971	
6435.55	0.000375882	
6440.43	0.000375467	
6445.31	0.000375435	
6450.2	0.000374989	
6455.08	0.000374786	
6459.96	0.000374795	
6464.84	0.000374457	
6469.73	0.000374042	
6474.61	0.000373837	
6479.49	0.000373608	
6484.38	0.000373386	
6489.26	0.000372731	
6494.14	0.000372837	
6499.02	0.000372809	
6503.91	0.000372269	
6508.79	0.000371738	
6513.67	0.000371866	
6518.55	0.000371545	
6523.44	0.000371301	
6528.32	0.000370578	
6533.2	0.000370853	
6538.09	0.000370471	
6542.97	0.000370232	
6547.85	0.000369961	
6552.73	0.000369773	
6557.62	0.000369505	
6562.5	0.000369191	
6567.38	0.000369444	
6572.27	0.000368861	
6577.15	0.000368475	
6582.03	0.000368264	
6586.91	0.000367787	
6591.8	0.000367726	
6596.68	0.00036772	
6601.56	0.000367252	
6606.45	0.000366847	
6611.33	0.000366842	
6616.21	0.000366344	
6621.09	0.000366318	
6625.98	0.00036579	
6630.86	0.000365773	
6635.74	0.000365687	
6640.63	0.000365284	
6645.51	0.000365054	
6650.39	0.000364855	
6655.27	0.000365016	
6660.16	0.00036439	
6665.04	0.00036366	
6669.92	0.000363793	
6674.8	0.000364292	
6679.69	0.00036339	
6684.57	0.000362623	
6689.45	0.000362913	
6694.34	0.000362702	
6699.22	0.000362404	
6704.1	0.000361745	
6708.98	0.000361888	
6713.87	0.000362014	
6718.75	0.000361507	
6723.63	0.000361376	
6728.52	0.000360914	
6733.4	0.000360639	
6738.28	0.000360428	
6743.16	0.0003603	
6748.05	0.000360047	
6752.93	0.000359767	
6757.81	0.000359529	
6762.7	0.000359412	
6767.58	0.00035912	
6772.46	0.00035839	
6777.34	0.000358641	
6782.23	0.000358653	
6787.11	0.000358159	
6791.99	0.000357847	
6796.88	0.000357648	
6801.76	0.000357022	
6806.64	0.000357218	
6811.52	0.000356997	
6816.41	0.000356779	
6821.29	0.000355998	
6826.17	0.000356186	
6831.05	0.000355763	
6835.94	0.000355846	
6840.82	0.000355931	
6845.7	0.00035545	
6850.59	0.000354912	
6855.47	0.000354881	
6860.35	0.00035438	
6865.23	0.000354536	
6870.12	0.000354023	
6875	0.00035398	
6879.88	0.000353616	
6884.77	0.000353589	
6889.65	0.000353154	
6894.53	0.000353114	
6899.41	0.000352632	
6904.3	0.000352752	
6909.18	0.000352651	
6914.06	0.000352236	
6918.95	0.000351924	
6923.83	0.000351745	
6928.71	0.000351314	
6933.59	0.000351339	
6938.48	0.000351206	
6943.36	0.000350837	
6948.24	0.000350553	
6953.13	0.000350418	
6958.01	0.000350011	
6962.89	0.000350034	
6967.77	0.000350104	
6972.66	0.000349619	
6977.54	0.000349303	
6982.42	0.000349107	
6987.3	0.000348667	
6992.19	0.00034874	
6997.07	0.000348681	
7001.95	0.000348236	
7006.84	0.000348454	
7011.72	0.000347839	
7016.6	0.000347238	
7021.48	0.000347389	
7026.37	0.000346754	
7031.25	0.000346918	
7036.13	0.000347034	
7041.02	0.000346591	
7045.9	0.000346489	
7050.78	0.000346037	
7055.66	0.000346118	
7060.55	0.00034559	
7065.43	0.000345894	
7070.31	0.000345242	
7075.2	0.00034516	
7080.08	0.000344861	
7084.96	0.000344985	
7089.84	0.000344352	
7094.73	0.000344329	
7099.61	0.0003439	
7104.49	0.000343428	
7109.38	0.000343524	
7114.26	0.000343822	
7119.14	0.000343034	
7124.02	0.000342485	
7128.91	0.000342718	
7133.79	0.000342435	
7138.67	0.00034237	
7143.55	0.000342105	
7148.44	0.000341821	
7153.32	0.000341696	
7158.2	0.000341368	
7163.09	0.000341384	
7167.97	0.000341048	
7172.85	0.00034053	
7177.73	0.000340521	
7182.62	0.000340684	
7187.5	0.000340165	
7192.38	0.000339652	
7197.27	0.000339855	
7202.15	0.000339615	
7207.03	0.000339383	
7211.91	0.000339077	
7216.8	0.000339005	
7221.68	0.000338878	
7226.56	0.000338598	
7231.45	0.000338474	
7236.33	0.000338029	
7241.21	0.000338019	
7246.09	0.000337807	
7250.98	0.000337418	
7255.86	0.000337355	
7260.74	0.0003375	
7265.63	0.000336964	
7270.51	0.000336914	
7275.39	0.00033653	
7280.27	0.000336227	
7285.16	0.000336139	
7290.04	0.000336599	
7294.92	0.000335644	
7299.8	0.00033581	
7304.69	0.000335316	
7309.57	0.00033504	
7314.45	0.000334953	
7319.34	0.000334699	
7324.22	0.000334532	
7329.1	0.00033494	
7333.98	0.000334145	
7338.87	0.000334266	
7343.75	0.00033377	
7348.63	0.0003333	
7353.52	0.00033333	
7358.4	0.000332891	
7363.28	0.000333019	
7368.16	0.000332677	
7373.05	0.000332668	
7377.93	0.000332051	
7382.81	0.000332244	
7387.7	0.000331872	
7392.58	0.000331832	
7397.46	0.000331532	
7402.34	0.000331313	
7407.23	0.000331408	
7412.11	0.000331096	
7416.99	0.000330978	
7421.88	0.000330711	
7426.76	0.000330759	
7431.64	0.000330257	
7436.52	0.000330115	
7441.41	0.000329898	
7446.29	0.000329588	
7451.17	0.000329431	
7456.05	0.000329489	
7460.94	0.000329157	
7465.82	0.00032862	
7470.7	0.000328818	
7475.59	0.000328228	
7480.47	0.000328339	
7485.35	0.00032813	
7490.23	0.000328064	
7495.12	0.00032795	
7500	0.000327537	
7504.88	0.000327194	
7509.77	0.000327301	
7514.65	0.000327167	
7519.53	0.000326878	
7524.41	0.000327225	
7529.3	0.000326492	
7534.18	0.000326151	
7539.06	0.000326107	
7543.95	0.000325856	
7548.83	0.000325789	
7553.71	0.000325668	
7558.59	0.000325341	
7563.48	0.000325231	
7568.36	0.000325037	
7573.24	0.000324731	
7578.13	0.00032468	
7583.01	0.000324273	
7587.89	0.000324286	
7592.77	0.000323908	
7597.66	0.000323891	
7602.54	0.000324313	
7607.42	0.000323559	
7612.3	0.000323361	
7617.19	0.000323162	
7622.07	0.000322842	
7626.95	0.000322802	
7631.84	0.000322794	
7636.72	0.000322386	
7641.6	0.000322012	
7646.48	0.000322115	
7651.37	0.000322177	
7656.25	0.000321766	
7661.13	0.000321257	
7666.02	0.00032133	
7670.9	0.00032087	
7675.78	0.000321028	
7680.66	0.000321267	
7685.55	0.000320633	
7690.43	0.000320293	
7695.31	0.000320331	
7700.2	0.000319707	
7705.08	0.000319958	
7709.96	0.000319505	
7714.84	0.000319648	
7719.73	0.000319321	
7724.61	0.000319212	
7729.49	0.000319268	
7734.38	0.000318898	
7739.26	0.000319597	
7744.14	0.000318612	
7749.02	0.000318458	
7753.91	0.000318084	
7758.79	0.000317857	
7763.67	0.000317854	
7768.55	0.000317588	
7773.44	0.000317515	
7778.32	0.000317159	
7783.2	0.000317126	
7788.09	0.000316794	
7792.97	0.000316728	
7797.85	0.000316202	
7802.73	0.000316436	
7807.62	0.00031655	
7812.5	0.000316063	
7817.38	0.000316179	
7822.27	0.000315848	
7827.15	0.000315671	
7832.03	0.000315436	
7836.91	0.000315314	
7841.8	0.000315136	
7846.68	0.000314869	
7851.56	0.000314684	
7856.45	0.000314228	
7861.33	0.000314349	
7866.21	0.000314083	
7871.09	0.000314075	
7875.98	0.000314572	
7880.86	0.000313653	
7885.74	0.000313772	
7890.63	0.000313428	
7895.51	0.000313282	
7900.39	0.000312937	
7905.27	0.00031289	
7910.16	0.000312738	
7915.04	0.00031289	
7919.92	0.000312306	
7924.8	0.000311508	
7929.69	0.000311961	
7934.57	0.000311873	
7939.45	0.000311705	
7944.34	0.000311377	
7949.22	0.000311436	
7954.1	0.000311578	
7958.98	0.000311012	
7963.87	0.00031128	
7968.75	0.000310692	
7973.63	0.000310949	
7978.52	0.00031041	
7983.4	0.000310239	
7988.28	0.000310072	
7993.16	0.000310023	
7998.05	0.000309695	
8002.93	0.000309512	
8007.81	0.000309462	
8012.7	0.000309437	
8017.58	0.000309121	
8022.46	0.000309166	
8027.34	0.000308703	
8032.23	0.000308662	
8037.11	0.000308398	
8041.99	0.000308086	
8046.88	0.000308089	
8051.76	0.000307979	
8056.64	0.0003078	
8061.52	0.000307513	
8066.41	0.000307451	
8071.29	0.000307418	
8076.17	0.000307169	
8081.05	0.000306956	
8085.94	0.000306878	
8090.82	0.000307015	
8095.7	0.000306498	
8100.59	0.000306531	
8105.47	0.000306112	
8110.35	0.000305878	
8115.23	0.000305843	
8120.12	0.000305789	
8125	0.000305515	
8129.88	0.000305559	
8134.77	0.000305229	
8139.65	0.000305003	
8144.53	0.000304947	
8149.41	0.000305399	
8154.3	0.00030461	
8159.18	0.000304798	
8164.06	0.000304261	
8168.95	0.000304192	
8173.83	0.000303933	
8178.71	0.000303944	
8183.59	0.000303672	
8188.48	0.000303222	
8193.36	0.000303372	
8198.24	0.000302978	
8203.13	0.000303108	
8208.01	0.000302981	
8212.89	0.000302763	
8217.77	0.000302849	
8222.66	0.000302412	
8227.54	0.000302536	
8232.42	0.000302155	
8237.3	0.000301806	
8242.19	0.0003018	
8247.07	0.000301818	
8251.95	0.000301505	
8256.84	0.000301521	
8261.72	0.000301118	
8266.6	0.000301212	
8271.48	0.000300872	
8276.37	0.000301119	
8281.25	0.000300517	
8286.13	0.000300644	
8291.02	0.000300207	
8295.9	0.000299845	
8300.78	0.000299895	
8305.66	0.000299941	
8310.55	0.000299671	
8315.43	0.000299325	
8320.31	0.000299428	
8325.2	0.000299775	
8330.08	0.000299094	
8334.96	0.000299324	
8339.84	0.000298822	
8344.73	0.000298451	
8349.61	0.000298501	
8354.49	0.000297596	
8359.38	0.000298184	
8364.26	0.000297826	
8369.14	0.000297906	
8374.02	0.000297743	
8378.91	0.000297583	
8383.79	0.000297396	
8388.67	0.000297315	
8393.55	0.000297475	
8398.44	0.000297	
8403.32	0.000296594	
8408.2	0.000296744	
8413.09	0.000296654	
8417.97	0.000296422	
8422.85	0.00029638	
8427.73	0.00029618	
8432.62	0.000295966	
8437.5	0.000295864	
8442.38	0.00029573	
8447.27	0.000295586	
8452.15	0.00029538	
8457.03	0.000295314	
8461.91	0.000295446	
8466.8	0.000294863	
8471.68	0.000295081	
8476.56	0.000294675	
8481.45	0.000294633	
8486.33	0.000294362	
8491.21	0.000294374	
8496.09	0.000294029	
8500.98	0.000294586	
8505.86	0.000293828	
8510.74	0.000293599	
8515.63	0.000293567	
8520.51	0.000293111	
8525.39	0.000293219	
8530.27	0.000293205	
8535.16	0.000292975	
8540.04	0.000292744	
8544.92	0.000292636	
8549.8	0.000292708	
8554.69	0.000292411	
8559.57	0.000292134	
8564.45	0.000292117	
8569.34	0.000292322	
8574.22	0.000291832	
8579.1	0.000291586	
8583.98	0.000291571	
8588.87	0.000291303	
8593.75	0.000291274	
8598.63	0.000291104	
8603.52	0.000291086	
8608.4	0.000291015	
8613.28	0.000290689	
8618.16	0.000290536	
8623.05	0.000290448	
8627.93	0.000290092	
8632.81	0.000290103	
8637.7	0.000290208	
8642.58	0.00028983	
8647.46	0.000289553	
8652.34	0.000289594	
8657.23	0.000289531	
8662.11	0.000289369	
8666.99	0.000288903	
8671.88	0.000289068	
8676.76	0.000288865	
8681.64	0.000288815	
8686.52	0.000288738	
8691.41	0.00028857	
8696.29	0.000288105	
8701.17	0.000288235	
8706.05	0.000287885	
8710.94	0.000287925	
8715.82	0.000288024	
8720.7	0.000287693	
8725.59	0.000287768	
8730.47	0.000287402	
8735.35	0.000287211	
8740.23	0.000287088	
8745.12	0.000287034	
8750	0.000286919	
8754.88	0.000286398	
8759.77	0.000286609	
8764.65	0.000286296	
8769.53	0.000286359	
8774.41	0.000286309	
8779.3	0.000286119	
8784.18	0.000285847	
8789.06	0.000285827	
8793.95	0.000285822	
8798.83	0.000285557	
8803.71	0.000285194	
8808.59	0.000285286	
8813.48	0.000284825	
8818.36	0.000285012	
8823.24	0.000284804	
8828.13	0.000284828	
8833.01	0.000284671	
8837.89	0.000284554	
8842.77	0.000284126	
8847.66	0.000284232	
8852.54	0.000283946	
8857.42	0.000284048	
8862.3	0.000284101	
8867.19	0.000283755	
8872.07	0.000283623	
8876.95	0.0002835	
8881.84	0.000283569	
8886.72	0.000283186	
8891.6	0.000283201	
8896.48	0.000283014	
8901.37	0.000282797	
8906.25	0.00028273	
8911.13	0.000282628	
8916.02	0.000282391	
8920.9	0.000281958	
8925.78	0.000282207	
8930.66	0.000282078	
8935.55	0.000281984	
8940.43	0.00028186	
8945.31	0.000281668	
8950.2	0.000281842	
8955.08	0.000281471	
8959.96	0.00028099	
8964.84	0.000281237	
8969.73	0.000281035	
8974.61	0.000280908	
8979.49	0.000280736	
8984.38	0.000280644	
8989.26	0.000280452	
8994.14	0.000280416	
8999.02	0.000280865	
9003.91	0.000280201	
9008.79	0.000279889	
9013.67	0.000279835	
9018.55	0.000279722	
9023.44	0.00027965	
9028.32	0.000279587	
9033.2	0.000279335	
9038.09	0.000279349	
9042.97	0.000279176	
9047.85	0.000279003	
9052.73	0.000278868	
9057.62	0.000278706	
9062.5	0.000278532	
9067.38	0.000278424	
9072.27	0.000278339	
9077.15	0.000278348	
9082.03	0.000278148	
9086.91	0.000277929	
9091.8	0.000277968	
9096.68	0.000278011	
9101.56	0.000277625	
9106.45	0.000277377	
9111.33	0.000277542	
9116.21	0.000276972	
9121.09	0.000277169	
9125.98	0.000277232	
9130.86	0.000276968	
9135.74	0.00027709	
9140.63	0.000276671	
9145.51	0.000276736	
9150.39	0.000276455	
9155.27	0.000276274	
9160.16	0.000276185	
9165.04	0.000276283	
9169.92	0.000275972	
9174.8	0.000275913	
9179.69	0.000275768	
9184.57	0.000275592	
9189.45	0.000275507	
9194.34	0.000275793	
9199.22	0.000275284	
9204.1	0.000275108	
9208.98	0.000275038	
9213.87	0.00027482	
9218.75	0.000274767	
9223.63	0.000274693	
9228.52	0.000274586	
9233.4	0.000274727	
9238.28	0.000274252	
9243.16	0.000273965	
9248.05	0.00027402	
9252.93	0.00027392	
9257.81	0.000273814	
9262.7	0.000273819	
9267.58	0.000273616	
9272.46	0.000273608	
9277.34	0.000273311	
9282.23	0.000273118	
9287.11	0.000273118	
9291.99	0.000272775	
9296.88	0.000272848	
9301.76	0.000272637	
9306.64	0.000272662	
9311.52	0.000272032	
9316.41	0.000272425	
9321.29	0.000272015	
9326.17	0.000272213	
9331.05	0.000271979	
9335.94	0.000271965	
9340.82	0.00027159	
9345.7	0.00027168	
9350.59	0.000271612	
9355.47	0.000271474	
9360.35	0.000271445	
9365.23	0.00027125	
9370.12	0.000271364	
9375	0.000270967	
9379.88	0.000270746	
9384.77	0.000270801	
9389.65	0.000270683	
9394.53	0.000270633	
9399.41	0.000270381	
9404.3	0.000270371	
9409.18	0.000270543	
9414.06	0.000270144	
9418.95	0.000269984	
9423.83	0.000269853	
9428.71	0.000269695	
9433.59	0.000269698	
9438.48	0.000269814	
9443.36	0.000269382	
9448.24	0.000269233	
9453.13	0.000269207	
9458.01	0.000269202	
9462.89	0.000268909	
9467.77	0.000268885	
9472.66	0.000268779	
9477.54	0.000268688	
9482.42	0.000268565	
9487.3	0.000268441	
9492.19	0.00026832	
9497.07	0.000267986	
9501.95	0.000268067	
9506.84	0.000268485	
9511.72	0.000267872	
9516.6	0.000267407	
9521.48	0.000267658	
9526.37	0.000267288	
9531.25	0.000267429	
9536.13	0.000267056	
9541.02	0.00026723	
9545.9	0.000267355	
9550.78	0.000266989	
9555.66	0.000266689	
9560.55	0.000266719	
9565.43	0.000266537	
9570.31	0.000266561	
9575.2	0.000266097	
9580.08	0.000266311	
9584.96	0.000266118	
9589.84	0.000266132	
9594.73	0.000266256	
9599.61	0.000265843	
9604.49	0.000266028	
9609.38	0.000265699	
9614.26	0.000265883	
9619.14	0.00026547	
9624.02	0.000265351	
9628.91	0.000265291	
9633.79	0.000265134	
9638.67	0.000264965	
9643.55	0.000265048	
9648.44	0.000264817	
9653.32	0.000264774	
9658.2	0.000264668	
9663.09	0.000263886	
9667.97	0.000264373	
9672.85	0.000264188	
9677.73	0.000264092	
9682.62	0.00026389	
9687.5	0.000263961	
9692.38	0.000263501	
9697.27	0.000263789	
9702.15	0.000263381	
9707.03	0.000263548	
9711.91	0.000263592	
9716.8	0.000263357	
9721.68	0.000263265	
9726.56	0.000263145	
9731.45	0.000262734	
9736.33	0.000262938	
9741.21	0.00026255	
9746.09	0.00026271	
9750.98	0.00026253	
9755.86	0.000262559	
9760.74	0.000262191	
9765.63	0.000262221	
9770.51	0.000261965	
9775.39	0.000261958	
9780.27	0.000261667	
9785.16	0.00026191	
9790.04	0.000261823	
9794.92	0.000261659	
9799.8	0.000261554	
9804.69	0.000261535	
9809.57	0.000261394	
9814.45	0.000261267	
9819.34	0.000261009	
9824.22	0.000261065	
9829.1	0.000261126	
9833.98	0.000260789	
9838.87	0.00026066	
9843.75	0.000260618	
9848.63	0.000260097	
9853.52	0.000260412	
9858.4	0.000260028	
9863.28	0.000260242	
9868.16	0.000260165	
9873.05	0.000259979	
9877.93	0.000259786	
9882.81	0.000259774	
9887.7	0.000259533	
9892.58	0.000259583	
9897.46	0.000259487	
9902.34	0.000259435	
9907.23	0.000259549	
9912.11	0.000259154	
9916.99	0.000258937	
9921.88	0.00025902	
9926.76	0.00025864	
9931.64	0.00025883	
9936.52	0.000258681	
9941.41	0.000258542	
9946.29	0.000258567	
9951.17	0.000258407	
9956.05	0.000258437	
9960.94	0.000258197	
9965.82	0.000257968	
9970.7	0.000258041	
9975.59	0.000257721	
9980.47	0.000257835	
9985.35	0.00025749	
9990.23	0.000257606	
9995.12	0.000257672	
10000	0.000257358	
10004.9	0.000257473	
10009.8	0.000257179	
10014.6	0.000257486	
10019.5	0.000256998	
10024.4	0.000257123	
10029.3	0.000256826	
10034.2	0.000256963	
10039.1	0.000256634	
10043.9	0.000256536	
10048.8	0.00025645	
10053.7	0.000256484	
10058.6	0.000256259	
10063.5	0.000256153	
10068.4	0.000256073	
10073.2	0.000256181	
10078.1	0.000255841	
10083	0.000255905	
10087.9	0.000255675	
10092.8	0.00025545	
10097.7	0.000255477	
10102.5	0.000255295	
10107.4	0.000255268	
10112.3	0.000255104	
10117.2	0.000255048	
10122.1	0.000254989	
10127	0.000254817	
10131.8	0.000254884	
10136.7	0.000254659	
10141.6	0.000254791	
10146.5	0.000254494	
10151.4	0.000254397	
10156.3	0.000254312	
10161.1	0.000254383	
10166	0.000254136	
10170.9	0.000253779	
10175.8	0.000253989	
10180.7	0.000253922	
10185.5	0.000253708	
10190.4	0.000253624	
10195.3	0.000253528	
10200.2	0.000253322	
10205.1	0.000253378	
10210	0.000253338	
10214.8	0.000253159	
10219.7	0.000253168	
10224.6	0.000252988	
10229.5	0.000252787	
10234.4	0.000252803	
10239.3	0.000252729	
10244.1	0.000252624	
10249	0.00025252	
10253.9	0.000252432	
10258.8	0.000252378	
10263.7	0.000252249	
10268.6	0.000252263	
10273.4	0.000252035	
10278.3	0.000252198	
10283.2	0.000251873	
10288.1	0.000251771	
10293	0.000251681	
10297.9	0.000251591	
10302.7	0.000251497	
10307.6	0.000251215	
10312.5	0.000251371	
10317.4	0.00025136	
10322.3	0.000251159	
10327.1	0.000251061	
10332	0.000250938	
10336.9	0.000250918	
10341.8	0.000250793	
10346.7	0.000250406	
10351.6	0.000250536	
10356.4	0.000250427	
10361.3	0.000250392	
10366.2	0.000250324	
10371.1	0.000250203	
10376	0.000250329	
10380.9	0.000250051	
10385.7	0.000249843	
10390.6	0.000249869	
10395.5	0.000249813	
10400.4	0.000249722	
10405.3	0.00024943	
10410.2	0.000249507	
10415	0.000249404	
10419.9	0.000249357	
10424.8	0.000249294	
10429.7	0.0002491	
10434.6	0.000249216	
10439.5	0.00024887	
10444.3	0.000248797	
10449.2	0.000248768	
10454.1	0.000248458	
10459	0.000248574	
10463.9	0.00024812	
10468.8	0.000248397	
10473.6	0.000248138	
10478.5	0.000248177	
10483.4	0.000248283	
10488.3	0.000248058	
10493.2	0.000247907	
10498	0.000247924	
10502.9	0.000247744	
10507.8	0.000247716	
10512.7	0.000247606	
10517.6	0.000247586	
10522.5	0.000247684	
10527.3	0.000247323	
10532.2	0.000247259	
10537.1	0.000247222	
10542	0.00024714	
10546.9	0.000247011	
10551.8	0.000247006	
10556.6	0.000246924	
10561.5	0.000246702	
10566.4	0.000246669	
10571.3	0.000246418	
10576.2	0.00024647	
10581.1	0.000246362	
10585.9	0.000246369	
10590.8	0.000246375	
10595.7	0.000246224	
10600.6	0.000245956	
10605.5	0.000245958	
10610.4	0.000245802	
10615.2	0.000245776	
10620.1	0.000245793	
10625	0.000245666	
10629.9	0.000245578	
10634.8	0.000245472	
10639.6	0.000245776	
10644.5	0.00024532	
10649.4	0.000245552	
10654.3	0.000245075	
10659.2	0.000245042	
10664.1	0.000244976	
10668.9	0.000245164	
10673.8	0.000244788	
10678.7	0.000244536	
10683.6	0.000244663	
10688.5	0.000244842	
10693.4	0.00024447	
10698.2	0.000244403	
10703.1	0.000244241	
10708	0.000244123	
10712.9	0.000244142	
10717.8	0.000244168	
10722.7	0.000243913	
10727.5	0.000243902	
10732.4	0.000243782	
10737.3	0.000243275	
10742.2	0.000243588	
10747.1	0.000243371	
10752	0.000243446	
10756.8	0.000243677	
10761.7	0.000243349	
10766.6	0.000242942	
10771.5	0.000243091	
10776.4	0.000243092	
10781.3	0.000242983	
10786.1	0.000242822	
10791	0.000242854	
10795.9	0.000242505	
10800.8	0.000242561	
10805.7	0.00024244	
10810.5	0.000242453	
10815.4	0.000242347	
10820.3	0.000242291	
10825.2	0.000242366	
10830.1	0.000242101	
10835	0.000241645	
10839.8	0.000241959	
10844.7	0.000241899	
10849.6	0.000241809	
10854.5	0.000241575	
10859.4	0.000241612	
10864.3	0.000241555	
10869.1	0.000241545	
10874	0.000241219	
10878.9	0.000241275	
10883.8	0.000241163	
10888.7	0.000241192	
10893.6	0.0002409	
10898.4	0.000241048	
10903.3	0.000241256	
10908.2	0.000240876	
10913.1	0.00024071	
10918	0.000240624	
10922.9	0.000240764	
10927.7	0.000240522	
10932.6	0.000240553	
10937.5	0.000240383	
10942.4	0.000240407	
10947.3	0.000240202	
10952.1	0.000240117	
10957	0.000240056	
10961.9	0.000239761	
10966.8	0.000239908	
10971.7	0.000239621	
10976.6	0.000239694	
10981.4	0.000239514	
10986.3	0.000239645	
10991.2	0.000239585	
10996.1	0.000239385	
11001	0.000239441	
11005.9	0.000239263	
11010.7	0.000239136	
11015.6	0.000239123	
11020.5	0.000238824	
11025.4	0.000238962	
11030.3	0.000238707	
11035.2	0.000238762	
11040	0.000238793	
11044.9	0.000238726	
11049.8	0.000238676	
11054.7	0.000238512	
11059.6	0.000238078	
11064.5	0.000238298	
11069.3	0.000237924	
11074.2	0.000238235	
11079.1	0.000238108	
11084	0.000238076	
11088.9	0.00023785	
11093.8	0.000237854	
11098.6	0.000237759	
11103.5	0.000237685	
11108.4	0.000237798	
11113.3	0.000237589	
11118.2	0.000237608	
11123	0.000237407	
11127.9	0.000236889	
11132.8	0.000237195	
11137.7	0.000237211	
11142.6	0.00023707	
11147.5	0.000236686	
11152.3	0.000236948	
11157.2	0.000237067	
11162.1	0.000236779	
11167	0.000236705	
11171.9	0.000236638	
11176.8	0.000236735	
11181.6	0.000236518	
11186.5	0.000236583	
11191.4	0.000236333	
11196.3	0.000236342	
11201.2	0.000236149	
11206.1	0.000236224	
11210.9	0.000236083	
11215.8	0.000235922	
11220.7	0.000235893	
11225.6	0.000235876	
11230.5	0.000235757	
11235.4	0.000235962	
11240.2	0.000235594	
11245.1	0.000235566	
11250	0.000235529	
11254.9	0.000235285	
11259.8	0.000235287	
11264.6	0.000234914	
11269.5	0.000235158	
11274.4	0.000235121	
11279.3	0.000234983	
11284.2	0.000234901	
11289.1	0.000234879	
11293.9	0.000234982	
11298.8	0.000234735	
11303.7	0.000234502	
11308.6	0.000234592	
11313.5	0.000234611	
11318.4	0.000234408	
11323.2	0.000234405	
11328.1	0.000234359	
11333	0.000234409	
11337.9	0.000234141	
11342.8	0.000234017	
11347.7	0.000234029	
11352.5	0.000234	
11357.4	0.000233841	
11362.3	0.000233662	
11367.2	0.000233676	
11372.1	0.000233654	
11377	0.00023358	
11381.8	0.0002333	
11386.7	0.000233362	
11391.6	0.000233322	
11396.5	0.000233222	
11401.4	0.000233411	
11406.3	0.000233121	
11411.1	0.000232859	
11416	0.000232972	
11420.9	0.000232739	
11425.8	0.000232808	
11430.7	0.000232899	
11435.5	0.000232657	
11440.4	0.000232761	
11445.3	0.000232501	
11450.2	0.000232279	
11455.1	0.000232406	
11460	0.000232359	
11464.8	0.000232257	
11469.7	0.000232407	
11474.6	0.000232132	
11479.5	0.000232192	
11484.4	0.000231942	
11489.3	0.000231929	
11494.1	0.000231879	
11499	0.000231985	
11503.9	0.000231744	
11508.8	0.000231321	
11513.7	0.000231571	
11518.6	0.000231364	
11523.4	0.000231409	
11528.3	0.000231622	
11533.2	0.000231306	
11538.1	0.00023104	
11543	0.000231143	
11547.9	0.000230939	
11552.7	0.000231035	
11557.6	0.00023091	
11562.5	0.000230879	
11567.4	0.000230751	
11572.3	0.000230734	
11577.1	0.00023076	
11582	0.000230587	
11586.9	0.000230601	
11591.8	0.000230473	
11596.7	0.000230763	
11601.6	0.000230337	
11606.4	0.000230367	
11611.3	0.000230245	
11616.2	0.000230297	
11621.1	0.000230041	
11626	0.000230043	
11630.9	0.000229884	
11635.7	0.000229877	
11640.6	0.000229811	
11645.5	0.000229809	
11650.4	0.000229639	
11655.3	0.000229646	
11660.2	0.000229469	
11665	0.000229347	
11669.9	0.000229423	
11674.8	0.000229186	
11679.7	0.000229213	
11684.6	0.000229231	
11689.5	0.000229073	
11694.3	0.00022904	
11699.2	0.00022897	
11704.1	0.000228833	
11709	0.000228838	
11713.9	0.000228918	
11718.8	0.000228696	
11723.6	0.000228434	
11728.5	0.000228544	
11733.4	0.00022866	
11738.3	0.000228466	
11743.2	0.000228213	
11748	0.00022826	
11752.9	0.000228087	
11757.8	0.000228169	
11762.7	0.000228302	
11767.6	0.000228008	
11772.5	0.00022799	
11777.3	0.000227937	
11782.2	0.000227567	
11787.1	0.000227731	
11792	0.000227771	
11796.9	0.000227641	
11801.8	0.000227788	
11806.6	0.000227538	
11811.5	0.000227694	
11816.4	0.000227443	
11821.3	0.000227055	
11826.2	0.000227309	
11831.1	0.00022717	
11835.9	0.000227116	
11840.8	0.000226917	
11845.7	0.000226971	
11850.6	0.000226881	
11855.5	0.000226901	
11860.4	0.000226895	
11865.2	0.000226721	
11870.1	0.00022659	
11875	0.000226619	
11879.9	0.000226209	
11884.8	0.000226473	
11889.6	0.000226632	
11894.5	0.000226379	
11899.4	0.000226017	
11904.3	0.000226171	
11909.2	0.000226142	
11914.1	0.000226086	
11918.9	0.000226126	
11923.8	0.000225985	
11928.7	0.000225769	
11933.6	0.000225818	
11938.5	0.000225315	
11943.4	0.000225682	
11948.2	0.000225666	
11953.1	0.000225562	
11958	0.000225768	
11962.9	0.000225469	
11967.8	0.000225441	
11972.7	0.000225346	
11977.5	0.000225203	
11982.4	0.000225195	
11987.3	0.000225124	
11992.2	0.000225047	
11997.1	0.000224665	
12002	0.000224933	
12006.8	0.000225145	
12011.7	0.000224773	
12016.6	0.000224726	
12021.5	0.000224685	
12026.4	0.000224601	
12031.3	0.000224555	
12036.1	0.000224673	
12041	0.000224438	
12045.9	0.000224426	
12050.8	0.000224347	
12055.7	0.00022427	
12060.5	0.000224205	
12065.4	0.000224078	
12070.3	0.000224074	
12075.2	0.000224216	
12080.1	0.000223951	
12085	0.000224009	
12089.8	0.0002238	
12094.7	0.000223737	
12099.6	0.000223728	
12104.5	0.000223512	
12109.4	0.000223614	
12114.3	0.000223087	
12119.1	0.000223421	
12124	0.000223507	
12128.9	0.000223273	
12133.8	0.000223319	
12138.7	0.000223206	
12143.6	0.000223163	
12148.4	0.000223084	
12153.3	0.000222931	
12158.2	0.000223007	
12163.1	0.00022297	
12168	0.00022286	
12172.9	0.000222888	
12177.7	0.000222713	
12182.6	0.000222633	
12187.5	0.000222588	
12192.4	0.000222422	
12197.3	0.000222478	
12202.1	0.000222482	
12207	0.000222414	
12211.9	0.000222121	
12216.8	0.00022224	
12221.7	0.000221907	
12226.6	0.000222171	
12231.4	0.000222141	
12236.3	0.000222022	
12241.2	0.000221889	
12246.1	0.000221922	
12251	0.000221725	
12255.9	0.000221816	
12260.7	0.000221665	
12265.6	0.00022165	
12270.5	0.000221493	
12275.4	0.000221576	
12280.3	0.000221371	
12285.2	0.00022141	
12290	0.000221246	
12294.9	0.000221324	
12299.8	0.000221185	
12304.7	0.000221213	
12309.6	0.000221251	
12314.5	0.000221063	
12319.3	0.000221088	
12324.2	0.000220966	
12329.1	0.000221021	
12334	0.000220796	
12338.9	0.000220701	
12343.8	0.000220737	
12348.6	0.000220566	
12353.5	0.000220622	
12358.4	0.000220443	
12363.3	0.000220514	
12368.2	0.000220482	
12373	0.000220357	
12377.9	0.00022049	
12382.8	0.00022024	
12387.7	0.000220158	
12392.6	0.000220137	
12397.5	0.000219897	
12402.3	0.000220056	
12407.2	0.00021995	
12412.1	0.000219889	
12417	0.000220107	
12421.9	0.000219805	
12426.8	0.000219925	
12431.6	0.000219669	
12436.5	0.000219606	
12441.4	0.000219611	
12446.3	0.000219541	
12451.2	0.000219473	
12456.1	0.000219758	
12460.9	0.000219388	
12465.8	0.0002193	
12470.7	0.000219229	
12475.6	0.000219282	
12480.5	0.000219115	
12485.4	0.000219011	
12490.2	0.000219032	
12495.1	0.000218954	
12500	0.000218913	
12504.9	0.000218761	
12509.8	0.000218837	
12514.6	0.000218534	
12519.5	0.000218686	
12524.4	0.000218774	
12529.3	0.000218574	
12534.2	0.000218314	
12539.1	0.000218467	
12543.9	0.000218693	
12548.8	0.000218368	
12553.7	0.000218215	
12558.6	0.000218254	
12563.5	0.000218121	
12568.4	0.000218143	
12573.2	0.000217965	
12578.1	0.000218005	
12583	0.000218127	
12587.9	0.000217887	
12592.8	0.000217859	
12597.7	0.000217774	
12602.5	0.000217777	
12607.4	0.00021766	
12612.3	0.000217539	
12617.2	0.000217616	
12622.1	0.000217292	
12627	0.00021746	
12631.8	0.000217287	
12636.7	0.000217327	
12641.6	0.000216973	
12646.5	0.000217256	
12651.4	0.000217268	
12656.3	0.000217173	
12661.1	0.00021698	
12666	0.000217015	
12670.9	0.000217083	
12675.8	0.000216998	
12680.7	0.000216832	
12685.5	0.000216847	
12690.4	0.000216885	
12695.3	0.000216759	
12700.2	0.000216676	
12705.1	0.000216571	
12710	0.000216344	
12714.8	0.000216497	
12719.7	0.000216423	
12724.6	0.000216375	
12729.5	0.000216154	
12734.4	0.000216288	
12739.3	0.000216329	
12744.1	0.000216166	
12749	0.000216146	
12753.9	0.000216047	
12758.8	0.000215931	
12763.7	0.00021593	
12768.6	0.000215946	
12773.4	0.000215803	
12778.3	0.000215937	
12783.2	0.00021573	
12788.1	0.000215495	
12793	0.000215652	
12797.9	0.000215439	
12802.7	0.000215482	
12807.6	0.000215615	
12812.5	0.000215432	
12817.4	0.00021539	
12822.3	0.000215346	
12827.1	0.000215458	
12832	0.000215206	
12836.9	0.00021537	
12841.8	0.000215095	
12846.7	0.000215003	
12851.6	0.000215021	
12856.4	0.000215051	
12861.3	0.000214933	
12866.2	0.000214762	
12871.1	0.000214793	
12876	0.000214884	
12880.9	0.000214683	
12885.7	0.000214761	
12890.6	0.00021459	
12895.5	0.000214803	
12900.4	0.000214527	
12905.3	0.00021479	
12910.2	0.000214359	
12915	0.000214247	
12919.9	0.000214322	
12924.8	0.000214209	
12929.7	0.000214199	
12934.6	0.000214049	
12939.5	0.000214077	
12944.3	0.000214253	
12949.2	0.000214043	
12954.1	0.000213963	
12959	0.000213907	
12963.9	0.000213659	
12968.8	0.000213802	
12973.6	0.000213795	
12978.5	0.00021371	
12983.4	0.000213415	
12988.3	0.000213561	
12993.2	0.000213645	
12998	0.00021349	
13002.9	0.000213327	
13007.8	0.000213375	
13012.7	0.000213474	
13017.6	0.000213269	
13022.5	0.000213221	
13027.3	0.000213183	
13032.2	0.000213326	
13037.1	0.000213083	
13042	0.000212861	
13046.9	0.00021296	
13051.8	0.000213229	
13056.6	0.000212853	
13061.5	0.00021271	
13066.4	0.000212773	
13071.3	0.000212819	
13076.2	0.000212636	
13081.1	0.000212722	
13085.9	0.00021255	
13090.8	0.000212393	
13095.7	0.0002125	
13100.6	0.000212612	
13105.5	0.000212432	
13110.4	0.000212359	
13115.2	0.000212282	
13120.1	0.000212122	
13125	0.000212237	
13129.9	0.000212072	
13134.8	0.000212105	
13139.6	0.000211835	
13144.5	0.000211979	
13149.4	0.000211696	
13154.3	0.000211889	
13159.2	0.000211668	
13164.1	0.000211833	
13168.9	0.000212005	
13173.8	0.000211688	
13178.7	0.000211886	
13183.6	0.000211639	
13188.5	0.000211661	
13193.4	0.000211519	
13198.2	0.000211607	
13203.1	0.000211411	
13208	0.000211551	
13212.9	0.000211323	
13217.8	0.000211226	
13222.7	0.000211194	
13227.5	0.000211094	
13232.4	0.000211182	
13237.3	0.00021122	
13242.2	0.000211086	
13247.1	0.000211072	
13252	0.00021095	
13256.8	0.000210828	
13261.7	0.000210847	
13266.6	0.000210927	
13271.5	0.000210781	
13276.4	0.000210755	
13281.3	0.000210679	
13286.1	0.000210713	
13291	0.000210546	
13295.9	0.000210396	
13300.8	0.000210466	
13305.7	0.000210501	
13310.5	0.000210395	
13315.4	0.000210236	
13320.3	0.000210296	
13325.2	0.000210315	
13330.1	0.000210187	
13335	0.000210275	
13339.8	0.000210087	
13344.7	0.000210239	
13349.6	0.000210014	
13354.5	0.00020994	
13359.4	0.000209954	
13364.3	0.000209918	
13369.1	0.000209861	
13374	0.000209714	
13378.9	0.000209717	
13383.8	0.000209799	
13388.7	0.000209679	
13393.6	0.000209895	
13398.4	0.000209521	
13403.3	0.00020938	
13408.2	0.00020943	
13413.1	0.000209272	
13418	0.000209414	
13422.9	0.000209309	
13427.7	0.000209244	
13432.6	0.000209011	
13437.5	0.000209193	
13442.4	0.000209099	
13447.3	0.000209048	
13452.1	0.000208854	
13457	0.00020901	
13461.9	0.000208752	
13466.8	0.000208915	
13471.7	0.000208973	
13476.6	0.000208809	
13481.4	0.00020894	
13486.3	0.000208744	
13491.2	0.000208653	
13496.1	0.000208679	
13501	0.000208443	
13505.9	0.000208552	
13510.7	0.000208119	
13515.6	0.000208505	
13520.5	0.000208529	
13525.4	0.000208399	
13530.3	0.000208247	
13535.2	0.00020827	
13540	0.000208193	
13544.9	0.00020819	
13549.8	0.000208309	
13554.7	0.00020811	
13559.6	0.000208348	
13564.5	0.000208047	
13569.3	0.000207828	
13574.2	0.000207957	
13579.1	0.000208071	
13584	0.000207867	
13588.9	0.000207655	
13593.8	0.00020771	
13598.6	0.000207734	
13603.5	0.000207669	
13608.4	0.000207554	
13613.3	0.000207588	
13618.2	0.000207394	
13623	0.000207501	
13627.9	0.000207601	
13632.8	0.000207393	
13637.7	0.000207456	
13642.6	0.000207358	
13647.5	0.000207169	
13652.3	0.00020726	
13657.2	0.000207215	
13662.1	0.000207125	
13667	0.000207124	
13671.9	0.000207028	
13676.8	0.000207065	
13681.6	0.000207017	
13686.5	0.000206972	
13691.4	0.000206896	
13696.3	0.000206617	
13701.2	0.000206798	
13706.1	0.00020694	
13710.9	0.000206745	
13715.8	0.000206318	
13720.7	0.000206641	
13725.6	0.00020665	
13730.5	0.000206495	
13735.4	0.000206405	
13740.2	0.000206466	
13745.1	0.000206295	
13750	0.00020634	
13754.9	0.000206236	
13759.8	0.00020631	
13764.6	0.000206427	
13769.5	0.000206218	
13774.4	0.00020608	
13779.3	0.000206106	
13784.2	0.000206082	
13789.1	0.000206041	
13793.9	0.000205811	
13798.8	0.000205955	
13803.7	0.000205908	
13808.6	0.00020591	
13813.5	0.000205777	
13818.4	0.000205786	
13823.2	0.000205806	
13828.1	0.000205711	
13833	0.000205931	
13837.9	0.000205619	
13842.8	0.000205584	
13847.7	0.000205517	
13852.5	0.000205499	
13857.4	0.000205457	
13862.3	0.000205479	
13867.2	0.000205375	
13872.1	0.000205408	
13877	0.000205281	
13881.8	0.000205184	
13886.7	0.000205264	
13891.6	0.000205182	
13896.5	0.000205103	
13901.4	0.000205057	
13906.3	0.000205025	
13911.1	0.000204874	
13916	0.000205005	
13920.9	0.000204902	
13925.8	0.000204836	
13930.7	0.000204904	
13935.5	0.000204801	
13940.4	0.000204573	
13945.3	0.000204672	
13950.2	0.000204611	
13955.1	0.000204655	
13960	0.000204718	
13964.8	0.000204585	
13969.7	0.000204552	
13974.6	0.000204481	
13979.5	0.000204234	
13984.4	0.000204439	
13989.3	0.000204581	
13994.1	0.000204335	
13999	0.000204292	
14003.9	0.000204268	
14008.8	0.000204297	
14013.7	0.000204222	
14018.6	0.000203951	
14023.4	0.000204057	
14028.3	0.000203998	
14033.2	0.000204046	
14038.1	0.000203974	
14043	0.000203952	
14047.9	0.000203792	
14052.7	0.000203826	
14057.6	0.000203582	
14062.5	0.000203776	
14067.4	0.000204006	
14072.3	0.000203689	
14077.1	0.000203735	
14082	0.000203615	
14086.9	0.000203411	
14091.8	0.000203522	
14096.7	0.000203571	
14101.6	0.000203463	
14106.4	0.000203502	
14111.3	0.000203415	
14116.2	0.000203404	
14121.1	0.000203263	
14126	0.000203231	
14130.9	0.000203169	
14135.7	0.000203194	
14140.6	0.000203155	
14145.5	0.000203003	
14150.4	0.0002031	
14155.3	0.000203	
14160.2	0.000202961	
14165	0.000202678	
14169.9	0.000202925	
14174.8	0.000203024	
14179.7	0.000202864	
14184.6	0.000202624	
14189.5	0.000202744	
14194.3	0.000202766	
14199.2	0.000202697	
14204.1	0.000202694	
14209	0.000202594	
14213.9	0.000202557	
14218.8	0.000202525	
14223.6	0.000202504	
14228.5	0.000202453	
14233.4	0.000202188	
14238.3	0.000202376	
14243.2	0.000202296	
14248	0.000202291	
14252.9	0.000202436	
14257.8	0.000202212	
14262.7	0.000202084	
14267.6	0.00020216	
14272.5	0.000202019	
14277.3	0.00020205	
14282.2	0.000201946	
14287.1	0.000201996	
14292	0.000202054	
14296.9	0.000201917	
14301.8	0.000201736	
14306.6	0.000201838	
14311.5	0.000201792	
14316.4	0.000201769	
14321.3	0.000201665	
14326.2	0.000201699	
14331.1	0.000201615	
14335.9	0.000201639	
14340.8	0.000201593	
14345.7	0.000201534	
14350.6	0.000201499	
14355.5	0.000201463	
14360.4	0.000201293	
14365.2	0.000201383	
14370.1	0.000201343	
14375	0.000201372	
14379.9	0.000201375	
14384.8	0.00020124	
14389.6	0.000201396	
14394.5	0.000201189	
14399.4	0.000201427	
14404.3	0.000201142	
14409.2	0.000201274	
14414.1	0.00020103	
14418.9	0.000201069	
14423.8	0.000200933	
14428.7	0.000200991	
14433.6	0.000200912	
14438.5	0.00020087	
14443.4	0.000200797	
14448.2	0.000200938	
14453.1	0.000200727	
14458	0.000200916	
14462.9	0.000200677	
14467.8	0.000200385	
14472.7	0.000200619	
14477.5	0.000200595	
14482.4	0.000200544	
14487.3	0.000200556	
14492.2	0.000200449	
14497.1	0.000200478	
14502	0.000200371	
14506.8	0.000200522	
14511.7	0.000200382	
14516.6	0.000200213	
14521.5	0.000200236	
14526.4	0.000200051	
14531.3	0.000200207	
14536.1	0.000200155	
14541	0.000200116	
14545.9	0.000199909	
14550.8	0.000200015	
14555.7	0.000200339	
14560.5	0.000199991	
14565.4	0.000200034	
14570.3	0.000199902	
14575.2	0.000199625	
14580.1	0.000199851	
14585	0.000199808	
14589.8	0.000199798	
14594.7	0.000199737	
14599.6	0.000199699	
14604.5	0.000199636	
14609.4	0.000199646	
14614.3	0.00019941	
14619.1	0.000199536	
14624	0.000199586	
14628.9	0.000199517	
14633.8	0.000199513	
14638.7	0.000199422	
14643.6	0.000199464	
14648.4	0.000199371	
14653.3	0.000199567	
14658.2	0.000199288	
14663.1	0.000199323	
14668	0.000199237	
14672.9	0.000199156	
14677.7	0.000199152	
14682.6	0.000199101	
14687.5	0.000199119	
14692.4	0.000199028	
14697.3	0.000199026	
14702.1	0.000199113	
14707	0.000198955	
14711.9	0.000199069	
14716.8	0.000198904	
14721.7	0.000198842	
14726.6	0.000198803	
14731.4	0.000198745	
14736.3	0.000198758	
14741.2	0.000198856	
14746.1	0.000198717	
14751	0.000198814	
14755.9	0.000198638	
14760.7	0.000198566	
14765.6	0.000198548	
14770.5	0.000198692	
14775.4	0.000198527	
14780.3	0.0001984	
14785.2	0.000198409	
14790	0.000198344	
14794.9	0.000198342	
14799.8	0.000198371	
14804.7	0.000198309	
14809.6	0.000198424	
14814.5	0.000198237	
14819.3	0.000198069	
14824.2	0.000198115	
14829.1	0.000198046	
14834	0.000198086	
14838.9	0.00019805	
14843.8	0.000198011	
14848.6	0.000197867	
14853.5	0.000197976	
14858.4	0.000198046	
14863.3	0.000197887	
14868.2	0.000197789	
14873	0.000197811	
14877.9	0.000197617	
14882.8	0.000197792	
14887.7	0.000197751	
14892.6	0.000197722	
14897.5	0.000197604	
14902.3	0.000197643	
14907.2	0.000197637	
14912.1	0.000197556	
14917	0.000197414	
14921.9	0.000197543	
14926.8	0.000197449	
14931.6	0.00019749	
14936.5	0.000197549	
14941.4	0.000197389	
14946.3	0.000197462	
14951.2	0.000197295	
14956.1	0.000197453	
14960.9	0.000197246	
14965.8	0.000197223	
14970.7	0.000197216	
14975.6	0.000197219	
14980.5	0.000197148	
14985.4	0.000197123	
14990.2	0.000197034	
14995.1	0.00019692	
15000	0.000196993	
15004.9	0.000196968	
15009.8	0.000196962	
15014.6	0.000196981	
15019.5	0.00019689	
15024.4	0.000196871	
15029.3	0.000196803	
15034.2	0.00019688	
15039.1	0.000196751	
15043.9	0.000196678	
15048.8	0.000196713	
15053.7	0.000196864	
15058.6	0.000196659	
15063.5	0.00019659	
15068.4	0.000196583	
15073.2	0.000196481	
15078.1	0.000196468	
15083	0.000196528	
15087.9	0.000196426	
15092.8	0.000196334	
15097.7	0.000196404	
15102.5	0.000196522	
15107.4	0.000196334	
15112.3	0.000196422	
15117.2	0.000196239	
15122.1	0.000196045	
15127	0.000196202	
15131.8	0.000196193	
15136.7	0.000196169	
15141.6	0.000196238	
15146.5	0.000196063	
15151.4	0.000196065	
15156.3	0.000196006	
15161.1	0.000195977	
15166	0.000195941	
15170.9	0.000195844	
15175.8	0.00019588	
15180.7	0.000195834	
15185.5	0.000195866	
15190.4	0.000195808	
15195.3	0.000195818	
15200.2	0.000195705	
15205.1	0.000195736	
15210	0.000195748	
15214.8	0.000195618	
15219.7	0.00019554	
15224.6	0.000195595	
15229.5	0.000195563	
15234.4	0.000195564	
15239.3	0.000195564	
15244.1	0.000195496	
15249	0.000195524	
15253.9	0.000195402	
15258.8	0.000195278	
15263.7	0.000195386	
15268.6	0.000195205	
15273.4	0.000195312	
15278.3	0.000195192	
15283.2	0.000195276	
15288.1	0.000195334	
15293	0.000195212	
15297.9	0.000195234	
15302.7	0.000195119	
15307.6	0.000195216	
15312.5	0.000195086	
15317.4	0.000194852	
15322.3	0.00019507	
15327.1	0.000195195	
15332	0.000194963	
15336.9	0.00019501	
15341.8	0.000194927	
15346.7	0.000195028	
15351.6	0.000194847	
15356.4	0.000194763	
15361.3	0.000194799	
15366.2	0.000194832	
15371.1	0.000194716	
15376	0.000194731	
15380.9	0.00019467	
15385.7	0.000194581	
15390.6	0.000194614	
15395.5	0.000194686	
15400.4	0.000194559	
15405.3	0.000194616	
15410.2	0.000194534	
15415	0.000194484	
15419.9	0.000194433	
15424.8	0.000194291	
15429.7	0.000194412	
15434.6	0.000194705	
15439.5	0.000194348	
15444.3	0.000194292	
15449.2	0.000194267	
15454.1	0.00019435	
15459	0.00019424	
15463.9	0.000194213	
15468.8	0.000194165	
15473.6	0.0001944	
15478.5	0.000194119	
15483.4	0.000194428	
15488.3	0.000194057	
15493.2	0.000194054	
15498	0.000193981	
15502.9	0.000194084	
15507.8	0.000193974	
15512.7	0.000193917	
15517.6	0.000193917	
15522.5	0.000193708	
15527.3	0.000193849	
15532.2	0.000193894	
15537.1	0.000193778	
15542	0.000193694	
15546.9	0.000193762	
15551.8	0.000193669	
15556.6	0.000193713	
15561.5	0.000193773	
15566.4	0.000193569	
15571.3	0.000193724	
15576.2	0.000193527	
15581.1	0.000193599	
15585.9	0.000193513	
15590.8	0.000193274	
15595.7	0.000193459	
15600.6	0.000193369	
15605.5	0.000193383	
15610.4	0.000193457	
15615.2	0.000193334	
15620.1	0.000193395	
15625	0.000193282	
15629.9	0.00019328	
15634.8	0.00019326	
15639.6	0.000193259	
15644.5	0.00019323	
15649.4	0.000193367	
15654.3	0.000193173	
15659.2	0.000192975	
15664.1	0.000193083	
15668.9	0.000192954	
15673.8	0.000193041	
15678.7	0.000192853	
15683.6	0.000193039	
15688.5	0.000192998	
15693.4	0.00019289	
15698.2	0.000192733	
15703.1	0.000192861	
15708	0.000192779	
15712.9	0.000192868	
15717.8	0.000192816	
15722.7	0.000192821	
15727.5	0.000192774	
15732.4	0.000192712	
15737.3	0.00019262	
15742.2	0.00019273	
15747.1	0.00019255	
15752	0.00019261	
15756.8	0.000192814	
15761.7	0.000192572	
15766.6	0.000192583	
15771.5	0.000192551	
15776.4	0.000192289	
15781.3	0.000192493	
15786.1	0.000192407	
15791	0.000192403	
15795.9	0.000192474	
15800.8	0.000192407	
15805.7	0.000192169	
15810.5	0.000192348	
15815.4	0.000192458	
15820.3	0.000192292	
15825.2	0.000192374	
15830.1	0.000192202	
15835	0.000192253	
15839.8	0.000192181	
15844.7	0.000192149	
15849.6	0.000192098	
15854.5	0.000192001	
15859.4	0.000192062	
15864.3	0.000191992	
15869.1	0.00019205	
15874	0.000191982	
15878.9	0.000192025	
15883.8	0.000191846	
15888.7	0.000191962	
15893.6	0.000191964	
15898.4	0.00019188	
15903.3	0.000191845	
15908.2	0.000191806	
15913.1	0.000191689	
15918	0.000191806	
15922.9	0.000191703	
15927.7	0.00019176	
15932.6	0.000191937	
15937.5	0.000191699	
15942.4	0.000191594	
15947.3	0.000191644	
15952.1	0.000191738	
15957	0.00019162	
15961.9	0.000191466	
15966.8	0.000191584	
15971.7	0.000191546	
15976.6	0.00019146	
15981.4	0.000191482	
15986.3	0.000191465	
15991.2	0.000191316	
15996.1	0.000191425	
16001	0.000191377	
16005.9	0.000191323	
16010.7	0.000191385	
16015.6	0.000191265	
16020.5	0.000191277	
16025.4	0.00019122	
16030.3	0.000191268	
16035.2	0.000191219	
16040	0.00019098	
16044.9	0.000191151	
16049.8	0.000191132	
16054.7	0.000191122	
16059.6	0.000191274	
16064.5	0.000191029	
16069.3	0.000190976	
16074.2	0.000191032	
16079.1	0.000191194	
16084	0.000190975	
16088.9	0.00019108	
16093.8	0.000190944	
16098.6	0.00019086	
16103.5	0.000190874	
16108.4	0.000190843	
16113.3	0.00019085	
16118.2	0.000190727	
16123	0.000190779	
16127.9	0.000190647	
16132.8	0.00019075	
16137.7	0.000190593	
16142.6	0.000190643	
16147.5	0.000190737	
16152.3	0.00019064	
16157.2	0.000190753	
16162.1	0.000190623	
16167	0.000190517	
16171.9	0.000190553	
16176.8	0.000190391	
16181.6	0.000190523	
16186.5	0.000190295	
16191.4	0.000190453	
16196.3	0.000190485	
16201.2	0.000190417	
16206.1	0.000190236	
16210.9	0.000190373	
16215.8	0.000190452	
16220.7	0.000190357	
16225.6	0.000190448	
16230.5	0.000190263	
16235.4	0.000189988	
16240.2	0.000190244	
16245.1	0.000190067	
16250	0.000190173	
16254.9	0.000190274	
16259.8	0.000190137	
16264.6	0.000190237	
16269.5	0.000190087	
16274.4	0.000189938	
16279.3	0.000190062	
16284.2	0.00019009	
16289.1	0.00019008	
16293.9	0.000190007	
16298.8	0.000189966	
16303.7	0.000190128	
16308.6	0.000189891	
16313.5	0.000190109	
16318.4	0.000189898	
16323.2	0.000189819	
16328.1	0.000189854	
16333	0.000189733	
16337.9	0.00018983	
16342.8	0.00018985	
16347.7	0.000189739	
16352.5	0.000189682	
16357.4	0.000189708	
16362.3	0.000189512	
16367.2	0.00018969	
16372.1	0.000189639	
16377	0.000189631	
16381.8	0.000189734	
16386.7	0.000189585	
16391.6	0.000189583	
16396.5	0.000189524	
16401.4	0.000189606	
16406.3	0.00018951	
16411.1	0.000189471	
16416	0.000189438	
16420.9	0.000189435	
16425.8	0.000189421	
16430.7	0.000189451	
16435.5	0.000189357	
16440.4	0.000189441	
16445.3	0.000189335	
16450.2	0.000189271	
16455.1	0.000189273	
16460	0.000189239	
16464.8	0.000189258	
16469.7	0.000189302	
16474.6	0.000189219	
16479.5	0.000189094	
16484.4	0.000189212	
16489.3	0.000189071	
16494.1	0.000189158	
16499	0.000189176	
16503.9	0.000189086	
16508.8	0.000189091	
16513.7	0.000189042	
16518.6	0.00018896	
16523.4	0.000189069	
16528.3	0.000188866	
16533.2	0.000188938	
16538.1	0.000188964	
16543	0.000188941	
16547.9	0.000188641	
16552.7	0.000188857	
16557.6	0.000188853	
16562.5	0.000188873	
16567.4	0.000188734	
16572.3	0.000188775	
16577.1	0.000188953	
16582	0.000188776	
16586.9	0.000188837	
16591.8	0.000188709	
16596.7	0.000188543	
16601.6	0.000188711	
16606.4	0.000188567	
16611.3	0.000188629	
16616.2	0.000188743	
16621.1	0.00018863	
16626	0.000188585	
16630.9	0.000188558	
16635.7	0.000188531	
16640.6	0.000188507	
16645.5	0.000188467	
16650.4	0.000188477	
16655.3	0.000188318	
16660.2	0.000188446	
16665	0.000188384	
16669.9	0.000188399	
16674.8	0.000188331	
16679.7	0.000188385	
16684.6	0.000188222	
16689.5	0.000188336	
16694.3	0.000188192	
16699.2	0.000188308	
16704.1	0.000188346	
16709	0.000188279	
16713.9	0.000188224	
16718.8	0.000188255	
16723.6	0.000188147	
16728.5	0.000188205	
16733.4	0.000188082	
16738.3	0.000188161	
16743.2	0.000188186	
16748	0.000188138	
16752.9	0.000188027	
16757.8	0.000188088	
16762.7	0.000188251	
16767.6	0.000188015	
16772.5	0.000188067	
16777.3	0.000188008	
16782.2	0.000187909	
16787.1	0.000187984	
16792	0.00018809	
16796.9	0.000187884	
16801.8	0.000187771	
16806.6	0.000187929	
16811.5	0.000188081	
16816.4	0.000187854	
16821.3	0.000187689	
16826.2	0.000187786	
16831.1	0.0001879	
16835.9	0.000187745	
16840.8	0.000187623	
16845.7	0.000187762	
16850.6	0.000187591	
16855.5	0.000187699	
16860.4	0.000187542	
16865.2	0.000187702	
16870.1	0.000187507	
16875	0.000187638	
16879.9	0.000187672	
16884.8	0.000187618	
16889.6	0.000187707	
16894.5	0.000187592	
16899.4	0.000187611	
16904.3	0.000187551	
16909.2	0.000187417	
16914.1	0.000187508	
16918.9	0.000187731	
16923.8	0.000187461	
16928.7	0.000187466	
16933.6	0.000187422	
16938.5	0.000187411	
16943.4	0.000187383	
16948.2	0.000187415	
16953.1	0.000187329	
16958	0.000187299	
16962.9	0.000187322	
16967.8	0.000187268	
16972.7	0.000187306	
16977.5	0.000187165	
16982.4	0.000187261	
16987.3	0.000187139	
16992.2	0.000187232	
16997.1	0.000187154	
17002	0.000187176	
17006.8	0.000187182	
17011.7	0.000187132	
17016.6	0.00018715	
17021.5	0.000187111	
17026.4	0.000187045	
17031.3	0.000187047	
17036.1	0.000187183	
17041	0.000187023	
17045.9	0.000186946	
17050.8	0.000187045	
17055.7	0.00018698	
17060.5	0.000186964	
17065.4	0.00018687	
17070.3	0.000186937	
17075.2	0.000186815	
17080.1	0.000186892	
17085	0.000186786	
17089.8	0.000186888	
17094.7	0.000186871	
17099.6	0.000186851	
17104.5	0.000186703	
17109.4	0.000186751	
17114.3	0.000186793	
17119.1	0.000186763	
17124	0.000186762	
17128.9	0.000186769	
17133.8	0.000186583	
17138.7	0.000186711	
17143.6	0.000186712	
17148.4	0.000186705	
17153.3	0.000186504	
17158.2	0.000186652	
17163.1	0.000186536	
17168	0.000186595	
17172.9	0.000186498	
17177.7	0.000186556	
17182.6	0.000186783	
17187.5	0.000186535	
17192.4	0.000186499	
17197.3	0.000186519	
17202.1	0.000186497	
17207	0.00018646	
17211.9	0.000186503	
17216.8	0.000186461	
17221.7	0.000186407	
17226.6	0.000186407	
17231.4	0.000186507	
17236.3	0.000186382	
17241.2	0.000186438	
17246.1	0.000186356	
17251	0.000186357	
17255.9	0.00018633	
17260.7	0.000186394	
17265.6	0.000186288	
17270.5	0.000186489	
17275.4	0.000186258	
17280.3	0.000186197	
17285.2	0.00018622	
17290	0.000186388	
17294.9	0.000186175	
17299.8	0.000186117	
17304.7	0.000186196	
17309.6	0.000186178	
17314.5	0.00018615	
17319.3	0.000186106	
17324.2	0.000186097	
17329.1	0.000185975	
17334	0.000186046	
17338.9	0.000186004	
17343.8	0.000186004	
17348.6	0.000186211	
17353.5	0.000186041	
17358.4	0.000185873	
17363.3	0.000185989	
17368.2	0.000186043	
17373	0.000185946	
17377.9	0.000185898	
17382.8	0.000185904	
17387.7	0.000185826	
17392.6	0.000185868	
17397.5	0.000185908	
17402.3	0.000185888	
17407.2	0.000185924	
17412.1	0.000185855	
17417	0.000185781	
17421.9	0.000185805	
17426.8	0.000185651	
17431.6	0.000185768	
17436.5	0.000185876	
17441.4	0.00018572	
17446.3	0.000185769	
17451.2	0.00018569	
17456.1	0.000185791	
17460.9	0.00018567	
17465.8	0.000185685	
17470.7	0.000185683	
17475.6	0.000185534	
17480.5	0.00018565	
17485.4	0.000185513	
17490.2	0.000185624	
17495.1	0.00018564	
17500	0.000185555	
17504.9	0.000185418	
17509.8	0.00018554	
17514.6	0.000185393	
17519.5	0.000185526	
17524.4	0.000185826	
17529.3	0.000185474	
17534.2	0.000185777	
17539.1	0.000185489	
17543.9	0.000185453	
17548.8	0.000185433	
17553.7	0.000185513	
17558.6	0.000185394	
17563.5	0.000185419	
17568.4	0.000185366	
17573.2	0.00018545	
17578.1	0.000185356	
17583	0.000185171	
17587.9	0.000185337	
17592.8	0.000185248	
17597.7	0.000185307	
17602.5	0.000185177	
17607.4	0.000185237	
17612.3	0.000185257	
17617.2	0.000185238	
17622.1	0.000185342	
17627	0.000185203	
17631.8	0.000185183	
17636.7	0.000185178	
17641.6	0.000184974	
17646.5	0.00018515	
17651.4	0.000185108	
17656.3	0.000185108	
17661.1	0.000185262	
17666	0.0001851	
17670.9	0.000185062	
17675.8	0.000185079	
17680.7	0.000185102	
17685.5	0.000185056	
17690.4	0.000185141	
17695.3	0.000185022	
17700.2	0.000184861	
17705.1	0.000184997	
17710	0.0001849	
17714.8	0.000184976	
17719.7	0.00018498	
17724.6	0.000184942	
17729.5	0.000184995	
17734.4	0.000184881	
17739.3	0.000185127	
17744.1	0.000184931	
17749	0.00018492	
17753.9	0.000184897	
17758.8	0.000185154	
17763.7	0.000184845	
17768.6	0.000184531	
17773.4	0.000184817	
17778.3	0.00018509	
17783.2	0.000184822	
17788.1	0.000185012	
17793	0.000184763	
17797.9	0.000184749	
17802.7	0.000184729	
17807.6	0.000184895	
17812.5	0.000184739	
17817.4	0.000184937	
17822.3	0.000184722	
17827.1	0.000184662	
17832	0.00018468	
17836.9	0.000184823	
17841.8	0.000184651	
17846.7	0.000184664	
17851.6	0.000184592	
17856.4	0.000184504	
17861.3	0.000184586	
17866.2	0.000184385	
17871.1	0.000184601	
17876	0.000184558	
17880.9	0.000184567	
17885.7	0.000184455	
17890.6	0.00018453	
17895.5	0.000184675	
17900.4	0.00018449	
17905.3	0.000184624	
17910.2	0.000184498	
17915	0.000184594	
17919.9	0.000184453	
17924.8	0.00018469	
17929.7	0.000184494	
17934.6	0.0001844	
17939.5	0.000184432	
17944.3	0.000184287	
17949.2	0.000184417	
17954.1	0.000184286	
17959	0.00018436	
17963.9	0.000184276	
17968.8	0.000184298	
17973.6	0.000184484	
17978.5	0.000184302	
17983.4	0.000184008	
17988.3	0.000184315	
17993.2	0.00018424	
17998	0.00018431	
18002.9	0.000184366	
18007.8	0.000184271	
18012.7	0.000184404	
18017.6	0.000184227	
18022.5	0.000184166	
18027.3	0.00018423	
18032.2	0.000184207	
18037.1	0.000184202	
18042	0.000184103	
18046.9	0.000184134	
18051.8	0.000183824	
18056.6	0.000184163	
18061.5	0.000184139	
18066.4	0.000184112	
18071.3	0.000184024	
18076.2	0.000184118	
18081.1	0.000183918	
18085.9	0.000184108	
18090.8	0.000184236	
18095.7	0.000184014	
18100.6	0.000183954	
18105.5	0.000184059	
18110.4	0.000183804	
18115.2	0.00018398	
18120.1	0.000184112	
18125	0.000183983	
18129.9	0.000183934	
18134.8	0.000183992	
18139.6	0.000183903	
18144.5	0.000183945	
18149.4	0.000183773	
18154.3	0.000183955	
18159.2	0.000183739	
18164.1	0.000183908	
18168.9	0.000183938	
18173.8	0.000183902	
18178.7	0.0001839	
18183.6	0.000183908	
18188.5	0.000184008	
18193.4	0.000183829	
18198.2	0.000183841	
18203.1	0.000183825	
18208	0.000183803	
18212.9	0.00018385	
18217.8	0.000183801	
18222.7	0.00018376	
18227.5	0.00018357	
18232.4	0.000183783	
18237.3	0.00018371	
18242.2	0.000183757	
18247.1	0.000183729	
18252	0.000183764	
18256.8	0.000183769	
18261.7	0.000183687	
18266.6	0.000183642	
18271.5	0.000183665	
18276.4	0.000183901	
18281.3	0.000183645	
18286.1	0.000183736	
18291	0.000183626	
18295.9	0.000183984	
18300.8	0.000183641	
18305.7	0.000183628	
18310.5	0.000183596	
18315.4	0.000183681	
18320.3	0.000183633	
18325.2	0.000183577	
18330.1	0.000183592	
18335	0.000183593	
18339.8	0.000183552	
18344.7	0.000183571	
18349.6	0.000183556	
18354.5	0.000183493	
18359.4	0.000183548	
18364.3	0.00018333	
18369.1	0.0001835	
18374	0.000183384	
18378.9	0.000183502	
18383.8	0.000183364	
18388.7	0.000183479	
18393.6	0.000183374	
18398.4	0.000183446	
18403.3	0.000183278	
18408.2	0.000183428	
18413.1	0.000183282	
18418	0.000183434	
18422.9	0.000183518	
18427.7	0.000183387	
18432.6	0.000183491	
18437.5	0.000183344	
18442.4	0.000183521	
18447.3	0.000183394	
18452.1	0.000183233	
18457	0.000183374	
18461.9	0.000183278	
18466.8	0.000183315	
18471.7	0.000183248	
18476.6	0.000183333	
18481.4	0.000183532	
18486.3	0.000183317	
18491.2	0.000183362	
18496.1	0.000183267	
18501	0.00018313	
18505.9	0.000183241	
18510.7	0.000183155	
18515.6	0.000183267	
18520.5	0.000183118	
18525.4	0.000183227	
18530.3	0.000183198	
18535.2	0.000183199	
18540	0.000183277	
18544.9	0.000183206	
18549.8	0.000183419	
18554.7	0.000183191	
18559.6	0.000183187	
18564.5	0.000183163	
18569.3	0.000183001	
18574.2	0.000183155	
18579.1	0.000183282	
18584	0.000183088	
18588.9	0.000183173	
18593.8	0.000183106	
18598.6	0.000183292	
18603.5	0.000183104	
18608.4	0.000183038	
18613.3	0.000183081	
18618.2	0.000183009	
18623	0.000183065	
18627.9	0.000182957	
18632.8	0.000183103	
18637.7	0.000183069	
18642.6	0.000183042	
18647.5	0.000183154	
18652.3	0.000183015	
18657.2	0.000182984	
18662.1	0.000183004	
18667	0.000183155	
18671.9	0.000182985	
18676.8	0.000182964	
18681.6	0.000183002	
18686.5	0.000183062	
18691.4	0.00018299	
18696.3	0.000182932	
18701.2	0.000182956	
18706.1	0.000182914	
18710.9	0.000182939	
18715.8	0.000182919	
18720.7	0.000182894	
18725.6	0.000182997	
18730.5	0.00018287	
18735.4	0.000182699	
18740.2	0.000182935	
18745.1	0.000182934	
18750	0.000182903	
18754.9	0.000182932	
18759.8	0.000182896	
18764.6	0.000182953	
18769.5	0.000182873	
18774.4	0.000182786	
18779.3	0.000182895	
18784.2	0.000182953	
18789.1	0.000182841	
18793.9	0.000182855	
18798.8	0.00018284	
18803.7	0.000182726	
18808.6	0.000182802	
18813.5	0.000182743	
18818.4	0.000182838	
18823.2	0.000182838	
18828.1	0.000182767	
18833	0.000182645	
18837.9	0.000182725	
18842.8	0.000183024	
18847.7	0.000182751	
18852.5	0.000182812	
18857.4	0.000182727	
18862.3	0.000182756	
18867.2	0.000182712	
18872.1	0.000182615	
18877	0.000182721	
18881.8	0.000182812	
18886.7	0.000182671	
18891.6	0.000182755	
18896.5	0.000182714	
18901.4	0.000182783	
18906.3	0.000182672	
18911.1	0.000182631	
18916	0.000182698	
18920.9	0.000182475	
18925.8	0.00018269	
18930.7	0.000182681	
18935.5	0.000182612	
18940.4	0.000182618	
18945.3	0.000182637	
18950.2	0.000182538	
18955.1	0.000182657	
18960	0.000182777	
18964.8	0.00018263	
18969.7	0.000182795	
18974.6	0.000182597	
18979.5	0.000182535	
18984.4	0.000182614	
18989.3	0.000182735	
18994.1	0.000182583	
18999	0.000182467	
19003.9	0.000182605	
19008.8	0.00018227	
19013.7	0.000182563	
19018.6	0.000182586	
19023.4	0.000182584	
19028.3	0.000182474	
19033.2	0.000182542	
19038.1	0.00018271	
19043	0.000182503	
19047.9	0.00018248	
19052.7	0.000182512	
19057.6	0.000182519	
19062.5	0.000182501	
19067.4	0.000182655	
19072.3	0.000182505	
19077.1	0.000182489	
19082	0.000182482	
19086.9	0.00018273	
19091.8	0.000182488	
19096.7	0.00018237	
19101.6	0.000182433	
19106.4	0.000182353	
19111.3	0.000182437	
19116.2	0.000182308	
19121.1	0.000182455	
19126	0.000182228	
19130.9	0.000182451	
19135.7	0.00018238	
19140.6	0.000182389	
19145.5	0.000182342	
19150.4	0.000182397	
19155.3	0.000182637	
19160.2	0.000182401	
19165	0.000182601	
19169.9	0.000182377	
19174.8	0.000182291	
19179.7	0.000182407	
19184.6	0.000182226	
19189.5	0.000182371	
19194.3	0.00018251	
19199.2	0.000182373	
19204.1	0.000182282	
19209	0.000182362	
19213.9	0.000182262	
19218.8	0.000182348	
19223.6	0.000182513	
19228.5	0.000182331	
19233.4	0.000182293	
19238.3	0.00018236	
19243.2	0.000182482	
19248	0.000182351	
19252.9	0.000182293	
19257.8	0.000182329	
19262.7	0.000182487	
19267.6	0.000182331	
19272.5	0.000182112	
19277.3	0.000182284	
19282.2	0.000182235	
19287.1	0.000182335	
19292	0.000182357	
19296.9	0.000182298	
19301.8	0.000182516	
19306.6	0.000182283	
19311.5	0.000182206	
19316.4	0.000182284	
19321.3	0.000182253	
19326.2	0.000182278	
19331.1	0.000182163	
19335.9	0.000182237	
19340.8	0.00018207	
19345.7	0.000182288	
19350.6	0.000182175	
19355.5	0.000182221	
19360.4	0.000182252	
19365.2	0.000182193	
19370.1	0.000182089	
19375	0.000182236	
19379.9	0.000182211	
19384.8	0.000182212	
19389.6	0.000182265	
19394.5	0.000182244	
19399.4	0.000182163	
19404.3	0.000182224	
19409.2	0.000182227	
19414.1	0.000182204	
19418.9	0.000182132	
19423.8	0.000182166	
19428.7	0.000182103	
19433.6	0.000182166	
19438.5	0.000182143	
19443.4	0.000182224	
19448.2	0.000182145	
19453.1	0.000182213	
19458	0.00018226	
19462.9	0.0001822	
19467.8	0.000182068	
19472.7	0.000182128	
19477.5	0.000182183	
19482.4	0.000182151	
19487.3	0.000182088	
19492.2	0.000182155	
19497.1	0.000182277	
19502	0.000182122	
19506.8	0.000182257	
19511.7	0.000182151	
19516.6	0.00018205	
19521.5	0.000182113	
19526.4	0.000182021	
19531.3	0.000182132	
19536.1	0.000181924	
19541	0.000182124	
19545.9	0.000182099	
19550.8	0.000182132	
19555.7	0.000182059	
19560.5	0.000182117	
19565.4	0.000182152	
19570.3	0.000182083	
19575.2	0.000182158	
19580.1	0.000182123	
19585	0.000182088	
19589.8	0.000182104	
19594.7	0.000182022	
19599.6	0.000182087	
19604.5	0.000182023	
19609.4	0.000182093	
19614.3	0.000182101	
19619.1	0.000182085	
19624	0.000182139	
19628.9	0.000182055	
19633.8	0.000181856	
19638.7	0.000182089	
19643.6	0.000182154	
19648.4	0.000182081	
19653.3	0.000182157	
19658.2	0.000182054	
19663.1	0.000182129	
19668	0.000182047	
19672.9	0.00018219	
19677.7	0.000182034	
19682.6	0.000181993	
19687.5	0.00018205	
19692.4	0.000182123	
19697.3	0.000181987	
19702.1	0.000181937	
19707	0.000182027	
19711.9	0.000182165	
19716.8	0.00018204	
19721.7	0.000182086	
19726.6	0.00018205	
19731.4	0.000181953	
19736.3	0.000182041	
19741.2	0.000181851	
19746.1	0.000182028	
19751	0.00018217	
19755.9	0.000182036	
19760.7	0.000181846	
19765.6	0.000182072	
19770.5	0.000182181	
19775.4	0.000182029	
19780.3	0.00018214	
19785.2	0.000182021	
19790	0.000182037	
19794.9	0.000182056	
19799.8	0.000181855	
19804.7	0.000182072	
19809.6	0.000182038	
19814.5	0.000182035	
19819.3	0.000182114	
19824.2	0.000182027	
19829.1	0.000182069	
19834	0.000182051	
19838.9	0.000182026	
19843.8	0.000182032	
19848.6	0.000181927	
19853.5	0.000182003	
19858.4	0.000182253	
19863.3	0.000182053	
19868.2	0.000181995	
19873	0.000182017	
19877.9	0.000181998	
19882.8	0.000182008	
19887.7	0.000181939	
19892.6	0.00018201	
19897.5	0.00018171	
19902.3	0.000182032	
19907.2	0.00018216	
19912.1	0.000182035	
19917	0.000181802	
19921.9	0.000182041	
19926.8	0.000181983	
19931.6	0.000182039	
19936.5	0.000182004	
19941.4	0.000181998	
19946.3	0.000182058	
19951.2	0.000181979	
19956.1	0.000182002	
19960.9	0.000182019	
19965.8	0.000181942	
19970.7	0.000182009	
19975.6	0.000181827	
19980.5	0.000181956	
19985.4	0.000181738	
19990.2	0.000181658	
19995.1	0.000187478	
20000	0.000129357	
